%OpenBCI Raw EEG Data
%Number of channels = 8
%Sample Rate = 250 Hz
%Board = OpenBCI_GUI$BoardCytonSerial
Sample Index, EXG Channel 0, EXG Channel 1, EXG Channel 2, EXG Channel 3, EXG Channel 4, EXG Channel 5, EXG Channel 6, EXG Channel 7, Accel Channel 0, Accel Channel 1, Accel Channel 2, Other, Other, Other, Other, Other, Other, Other, Analog Channel 0, Analog Channel 1, Analog Channel 2, Timestamp, Other, Timestamp (Formatted)
181.0, 23773.270699175682, 7193.216048862464, -30654.702264631065, -52599.734377829365, -1589.3878447279747, 8964.68120392337, -26002.276063236724, -5297.0505114853995, 0.0, 0.0, 0.0, 192.0, 0.0, 0.0, 0.0, 0.0, 0.0, 0.0, 0.0, 0.0, 0.0, 1.657492308889433E9, 0.0, 2022-07-10 18:31:48.889
182.0, 24551.67019983175, 7505.24640145855, -30556.555754727815, -52648.68469818649, -1455.3444332294982, 7618.726208058144, -25902.184951565858, -5649.962204690243, 0.0, 0.0, 0.0, 192.0, 0.0, 0.0, 0.0, 0.0, 0.0, 0.0, 0.0, 0.0, 0.0, 1.657492308889483E9, 0.0, 2022-07-10 18:31:48.889
183.0, 25127.674654445014, 7579.320082583437, -30473.004933953875, -52497.318684735146, -1386.4340050737865, 6811.291791354632, -25824.244418650203, -5550.251072675118, 0.0, 0.0, 0.0, 192.0, 0.0, 0.0, 0.0, 0.0, 0.0, 0.0, 0.0, 0.0, 0.0, 1.657492308889491E9, 0.0, 2022-07-10 18:31:48.889
184.0, 24261.56690854632, 7247.731953588957, -30558.05332160632, -52466.67444308692, -1493.767081948171, 7918.798377370642, -25904.4648295003, -5225.547280972873, 0.0, 0.0, 0.0, 192.0, 0.0, 0.0, 0.0, 0.0, 0.0, 0.0, 0.0, 0.0, 0.0, 1.657492308889498E9, 0.0, 2022-07-10 18:31:48.889
185.0, 23482.5415590455, 7168.584426472715, -30639.033691767898, -52596.20280220542, -1564.1974287268436, 8717.985000370145, -25989.066182263636, -5297.162270207676, 0.0, 0.0, 0.0, 192.0, 0.0, 0.0, 0.0, 0.0, 0.0, 0.0, 0.0, 0.0, 0.0, 1.657492308889507E9, 0.0, 2022-07-10 18:31:48.889
0.0, 0.0, 0.0, 0.0, 0.0, 0.0, 0.0, 0.0, 0.0, 0.032, 0.864, 0.452, 192.0, 1.0, 0.0, 27.0, 0.0, 14.0, 32.0, 0.0, 0.0, 0.0, 1.657492308974365E9, 0.0, 2022-07-10 18:31:48.974
1.0, 32363.649590450477, 9113.297952806706, -29380.29520276728, -49990.32467488345, -1487.8215179230592, 18705.45967882391, -25855.000419020704, -2311.2597836565715, 0.032, 0.864, 0.452, 192.0, 0.0, 0.0, 0.0, 0.0, 0.0, 0.0, 0.0, 0.0, 0.0, 1.657492308983259E9, 0.0, 2022-07-10 18:31:48.983
2.0, 27150.351065439114, 8582.242856293065, -29302.667594273997, -52142.68590720724, -630.676821550944, 11923.582783172464, -25066.319115915194, -4988.350568813154, 0.032, 0.864, 0.452, 192.0, 0.0, 0.0, 0.0, 0.0, 0.0, 0.0, 0.0, 0.0, 0.0, 1.657492308993348E9, 0.0, 2022-07-10 18:31:48.993
3.0, 18039.198880100117, 8868.144019620899, -28254.035503153267, -51413.706113541855, 571.2211812998273, -1054.7788208459403, -23900.429773381922, -5480.334816018917, 0.032, 0.864, 0.452, 192.0, 0.0, 0.0, 0.0, 0.0, 0.0, 0.0, 0.0, 0.0, 0.0, 1.657492308993376E9, 0.0, 2022-07-10 18:31:48.993
5.0, 31723.04859436138, 9254.046887641774, -29234.606532407586, -49571.34122506872, -1430.4445899062862, 17702.715719069925, -25791.543816512087, -2011.2323178329848, 0.032, 0.864, 0.452, 192.0, 0.0, 0.0, 0.0, 0.0, 0.0, 0.0, 0.0, 0.0, 0.0, 1.657492309003964E9, 0.0, 2022-07-10 18:31:49.003
7.0, 18994.579493353307, 8738.459198291206, -28434.034101251855, -51773.01040566092, 449.9629676297865, 394.82121405854394, -24029.689911566962, -5687.736652819712, 0.032, 0.864, 0.452, 192.0, 0.0, 0.0, 0.0, 0.0, 0.0, 0.0, 0.0, 0.0, 0.0, 1.65749230900405E9, 0.0, 2022-07-10 18:31:49.004
8.0, 20160.46883588658, 9367.705508197012, -28052.04278851066, -49399.81393811869, 126.37676315030613, 1433.1044474964676, -24319.122650518733, -3338.814179755948, 0.034, 0.878, 0.432, 192.0, 1.0, 16.0, 27.0, 112.0, 13.0, 128.0, 0.0, 0.0, 0.0, 1.65749230900988E9, 0.0, 2022-07-10 18:31:49.009
9.0, 30592.13973190066, 9353.936833612543, -29047.32126561657, -49217.33429638557, -1300.290381943033, 16035.253230959563, -25652.963000889184, -1824.2152719754306, 0.034, 0.878, 0.432, 192.0, 0.0, 0.0, 0.0, 0.0, 0.0, 0.0, 0.0, 0.0, 0.0, 1.657492309017721E9, 0.0, 2022-07-10 18:31:49.017
10.0, 30423.764040918835, 8712.218250300677, -29508.281291518368, -51596.11870004162, -1099.1246818452696, 16411.857773287033, -25475.668963869688, -4044.905787099098, 0.034, 0.878, 0.432, 192.0, 0.0, 0.0, 0.0, 0.0, 0.0, 0.0, 0.0, 0.0, 0.0, 1.657492309017849E9, 0.0, 2022-07-10 18:31:49.017
11.0, 20360.829873183953, 8667.2465404566, -28594.787847374424, -52022.45587378215, 307.20237579374026, 2372.1459355528277, -24137.02298844135, -5746.90172039291, 0.034, 0.878, 0.432, 192.0, 0.0, 0.0, 0.0, 0.0, 0.0, 0.0, 0.0, 0.0, 0.0, 1.657492309025999E9, 0.0, 2022-07-10 18:31:49.025
12.0, 18826.829651216227, 9292.089556704708, -27984.518168511175, -49772.28340772193, 345.02152741211984, -352.531713549103, -24061.451740437955, -3859.945101731432, 0.034, 0.878, 0.432, 192.0, 0.0, 0.0, 0.0, 0.0, 0.0, 0.0, 0.0, 0.0, 0.0, 1.657492309026051E9, 0.0, 2022-07-10 18:31:49.026
13.0, 29066.454358870313, 9437.979392764497, -28834.80087933551, -48956.71295603669, -1108.2665453274901, 13828.756073565017, -25449.293905412425, -1795.4932803503611, 0.034, 0.878, 0.432, 192.0, 0.0, 0.0, 0.0, 0.0, 0.0, 0.0, 0.0, 0.0, 0.0, 1.65749230903274E9, 0.0, 2022-07-10 18:31:49.032
14.0, 31590.167473574576, 8812.018789293623, -29546.100443136747, -51200.44811969377, -1297.4964138861196, 17942.415826608638, -25683.07080067048, -3541.5668537100382, 0.034, 0.878, 0.432, 192.0, 0.0, 0.0, 0.0, 0.0, 0.0, 0.0, 0.0, 0.0, 0.0, 1.657492309032767E9, 0.0, 2022-07-10 18:31:49.032
15.0, 22038.395349788112, 8604.773414704016, -28808.02348947805, -52199.88402126837, 77.58290500437082, 4781.75339481275, -24372.92329942266, -5710.356618208482, 0.034, 0.878, 0.432, 192.0, 0.0, 0.0, 0.0, 0.0, 0.0, 0.0, 0.0, 0.0, 0.0, 1.657492309040695E9, 0.0, 2022-07-10 18:31:49.040
16.0, 17911.771584960414, 9188.82449732119, -27994.24117734923, -50223.162796874385, 498.37684611998156, -1513.2578031131989, -23935.387901710023, -4386.999235987572, 0.034, 0.878, 0.432, 192.0, 0.0, 0.0, 0.0, 0.0, 0.0, 0.0, 0.0, 0.0, 0.0, 1.657492309040717E9, 0.0, 2022-07-10 18:31:49.040
17.0, 27222.927179685496, 9508.20857384307, -28626.683786712147, -48818.37800960279, -869.0581761667939, 11212.149108904494, -25241.489737211436, -1901.6640665130697, 0.034, 0.878, 0.432, 192.0, 0.0, 0.0, 0.0, 0.0, 0.0, 0.0, 0.0, 0.0, 0.0, 1.657492309049213E9, 0.0, 2022-07-10 18:31:49.049
18.0, 32300.841188531067, 8947.850340348523, -29535.192791842557, -50758.889407979186, -1435.1161044974453, 18851.930660239537, -25805.91598819685, -3031.9694318734923, 0.042, 0.882, 0.428, 192.0, 1.0, 80.0, 27.0, 144.0, 13.0, 96.0, 0.0, 0.0, 0.0, 1.657492309049247E9, 0.0, 2022-07-10 18:31:49.049
19.0, 23896.11588670205, 8576.274940523499, -29011.625529721445, -52267.363937778944, -175.28238001851798, 7425.8753568977545, -24628.73901471365, -5541.1762644262635, 0.042, 0.882, 0.428, 192.0, 0.0, 0.0, 0.0, 0.0, 0.0, 0.0, 0.0, 0.0, 0.0, 1.657492309055316E9, 0.0, 2022-07-10 18:31:49.055
20.0, 17509.149612086967, 9071.522542419738, -28050.99225652126, -50671.04705226982, 585.4145390289473, -1962.6843288760579, -23871.417209078936, -4878.894076215515, 0.042, 0.882, 0.428, 192.0, 0.0, 0.0, 0.0, 0.0, 0.0, 0.0, 0.0, 0.0, 0.0, 1.657492309055336E9, 0.0, 2022-07-10 18:31:49.055
21.0, 25225.17296375906, 9522.93837343912, -28423.9087610136, -48800.34015182736, -605.3522950830812, 8412.682522855106, -24981.024859073743, -2153.8811509467546, 0.042, 0.882, 0.428, 192.0, 0.0, 0.0, 0.0, 0.0, 0.0, 0.0, 0.0, 0.0, 0.0, 1.65749230906335E9, 0.0, 2022-07-10 18:31:49.063
22.0, 32523.643377261567, 9069.622644141036, -29451.373750135157, -50293.213163997316, -1493.0741778700565, 19043.283944521423, -25868.32205871607, -2595.126938238971, 0.042, 0.882, 0.428, 192.0, 0.0, 0.0, 0.0, 0.0, 0.0, 0.0, 0.0, 0.0, 0.0, 1.65749230906337E9, 0.0, 2022-07-10 18:31:49.063
23.0, 25822.00924420467, 8591.250609308554, -29177.83310149111, -52201.71686431371, -434.3167465110715, 10123.172119041934, -24886.02994513869, -5255.766839476448, 0.042, 0.882, 0.428, 192.0, 0.0, 0.0, 0.0, 0.0, 0.0, 0.0, 0.0, 0.0, 0.0, 1.65749230907097E9, 0.0, 2022-07-10 18:31:49.070
24.0, 17640.15318633952, 8945.570462414082, -28145.33896986711, -51089.3599497509, 608.034504417718, -1659.6393775510046, -23842.739920942775, -5244.076877126322, 0.042, 0.882, 0.428, 192.0, 0.0, 0.0, 0.0, 0.0, 0.0, 0.0, 0.0, 0.0, 0.0, 1.657492309071076E9, 0.0, 2022-07-10 18:31:49.071
25.0, 23216.60050351626, 9492.540000979901, -28239.171593090487, -48909.573126980446, -298.6863611562683, 5623.318925299517, -24669.79916927805, -2511.106730831472, 0.042, 0.882, 0.428, 192.0, 0.0, 0.0, 0.0, 0.0, 0.0, 0.0, 0.0, 0.0, 0.0, 1.657492309076859E9, 0.0, 2022-07-10 18:31:49.076
26.0, 32232.891885386933, 9192.847811323145, -29326.405146885532, -49848.90518771472, -1465.8721048679479, 18510.217191006803, -25819.930531970327, -2210.6098783743237, 0.042, 0.882, 0.428, 192.0, 0.0, 0.0, 0.0, 0.0, 0.0, 0.0, 0.0, 0.0, 0.0, 1.657492309084874E9, 0.0, 2022-07-10 18:31:49.084
27.0, 27702.05917382946, 8615.345789831375, -29331.94837951045, -52049.92616771772, -691.0265315802732, 12712.532307211437, -25120.72326191941, -4848.540407245208, 0.042, 0.882, 0.428, 192.0, 0.0, 0.0, 0.0, 0.0, 0.0, 0.0, 0.0, 0.0, 0.0, 1.657492309084895E9, 0.0, 2022-07-10 18:31:49.084
28.0, 18265.24207177664, 8843.445341997784, -28294.000422239355, -51496.765195937776, 555.3514427365593, -680.8117843641978, -23913.5949508661, -5560.689337335746, 0.038, 0.896, 0.422, 192.0, 1.0, 48.0, 28.0, 0.0, 13.0, 48.0, 0.0, 0.0, 0.0, 1.657492309094269E9, 0.0, 2022-07-10 18:31:49.094
29.0, 21306.04044270998, 9462.409849454147, -28094.622861698015, -49143.08180130504, -14.394523429217749, 3004.8344141047496, -24395.11858166678, -2981.58859987123, 0.038, 0.896, 0.422, 192.0, 0.0, 0.0, 0.0, 0.0, 0.0, 0.0, 0.0, 0.0, 0.0, 1.657492309094366E9, 0.0, 2022-07-10 18:31:49.094
30.0, 31418.550779646732, 9323.60551638669, -29165.24906936277, -49439.55533976023, -1385.9869701846803, 17271.237644104676, -25726.85786805843, -1920.1936626665192, 0.038, 0.896, 0.422, 192.0, 0.0, 0.0, 0.0, 0.0, 0.0, 0.0, 0.0, 0.0, 0.0, 1.657492309101095E9, 0.0, 2022-07-10 18:31:49.101
31.0, 29413.644005494596, 8690.000616312102, -29448.69154080052, -51803.11820544222, -938.5273979338882, 15051.754123181598, -25367.665334661644, -4396.63283784781, 0.038, 0.896, 0.422, 192.0, 0.0, 0.0, 0.0, 0.0, 0.0, 0.0, 0.0, 0.0, 0.0, 1.657492309101195E9, 0.0, 2022-07-10 18:31:49.101
32.0, 19391.054736501545, 8750.462085063707, -28469.10398830223, -51823.234775451994, 436.86484537897655, 976.1900873410807, -24024.5713620867, -5713.061179287574, 0.038, 0.896, 0.422, 192.0, 0.0, 0.0, 0.0, 0.0, 0.0, 0.0, 0.0, 0.0, 0.0, 1.657492309110458E9, 0.0, 2022-07-10 18:31:49.110
33.0, 19692.08803082562, 9383.910522927108, -28003.07011640908, -49488.12568046161, 247.07618320896427, 809.7589981268643, -24162.280459675847, -3495.186983965276, 0.038, 0.896, 0.422, 192.0, 0.0, 0.0, 0.0, 0.0, 0.0, 0.0, 0.0, 0.0, 0.0, 1.65749230911048E9, 0.0, 2022-07-10 18:31:49.110
34.0, 30132.364348454998, 9420.902660000642, -28955.6344098609, -49106.76021656516, -1209.0282093320143, 15368.299528157655, -25565.321810879926, -1792.788719271269, 0.038, 0.896, 0.422, 192.0, 0.0, 0.0, 0.0, 0.0, 0.0, 0.0, 0.0, 0.0, 0.0, 1.657492309116609E9, 0.0, 2022-07-10 18:31:49.116
35.0, 30840.66877849922, 8763.53785557006, -29520.88767539116, -51462.857599599076, -1158.4685633741099, 16957.843835096817, -25565.858252746853, -3897.1160527606075, 0.038, 0.896, 0.422, 192.0, 0.0, 0.0, 0.0, 0.0, 0.0, 0.0, 0.0, 0.0, 0.0, 1.657492309116629E9, 0.0, 2022-07-10 18:31:49.116
36.0, 20877.04341137927, 8660.697479331193, -28667.85569999882, -52076.43533664171, 247.94790124272126, 3116.5484328923744, -24218.696262681042, -5768.180581114362, 0.038, 0.896, 0.422, 192.0, 0.0, 0.0, 0.0, 0.0, 0.0, 0.0, 0.0, 0.0, 0.0, 1.657492309125473E9, 0.0, 2022-07-10 18:31:49.125
37.0, 18467.726524797265, 9277.78444025331, -27978.326735297054, -49909.97015356662, 431.23220577623914, -809.0437423042945, -24003.024280431782, -4049.376135990159, 0.02, 0.892, 0.41200000000000003, 192.0, 0.0, 160.0, 27.0, 224.0, 12.0, 224.0, 0.0, 0.0, 0.0, 1.657492309125505E9, 0.0, 2022-07-10 18:31:49.125
38.0, 28480.570433207802, 9480.313596762848, -28757.396788286784, -48897.99492335259, -1005.0908929217927, 13001.339197318459, -25367.106541050263, -1824.0811615086989, 0.02, 0.892, 0.41200000000000003, 192.0, 0.0, 0.0, 0.0, 0.0, 0.0, 0.0, 0.0, 0.0, 0.0, 1.657492309131678E9, 0.0, 2022-07-10 18:31:49.131
39.0, 31866.569145508904, 8854.17417933633, -29542.188887857068, -51055.8993883013, -1324.8325973549602, 18302.793002461553, -25717.067803987004, -3393.9559333271905, 0.02, 0.892, 0.41200000000000003, 192.0, 0.0, 0.0, 0.0, 0.0, 0.0, 0.0, 0.0, 0.0, 0.0, 1.657492309131697E9, 0.0, 2022-07-10 18:31:49.131
40.0, 22635.969237800746, 8611.65775199625, -28869.155510563316, -52220.98406803418, 20.429494432150655, 5634.964184160732, -24453.1213585283, -5686.484955130214, 0.02, 0.892, 0.41200000000000003, 192.0, 0.0, 0.0, 0.0, 0.0, 0.0, 0.0, 0.0, 0.0, 0.0, 1.65749230913821E9, 0.0, 2022-07-10 18:31:49.138
41.0, 17726.78854784829, 9157.420296361483, -27998.44330530683, -50359.17316188493, 560.1123643055397, -1720.3467154916186, -23889.365659876545, -4571.624645188409, 0.02, 0.892, 0.41200000000000003, 192.0, 0.0, 0.0, 0.0, 0.0, 0.0, 0.0, 0.0, 0.0, 0.0, 1.657492309145169E9, 0.0, 2022-07-10 18:31:49.145
42.0, 26573.40783755873, 9522.021951916451, -28538.282637391407, -48789.47720402208, -744.6260147840995, 10303.46128981844, -25115.850581628154, -1982.8232506302895, 0.02, 0.892, 0.41200000000000003, 192.0, 0.0, 0.0, 0.0, 0.0, 0.0, 0.0, 0.0, 0.0, 0.0, 1.657492309145207E9, 0.0, 2022-07-10 18:31:49.145
43.0, 32429.855457527097, 9010.569335290114, -29490.578709909765, -50590.64782746408, -1423.895528780881, 18965.85750172824, -25808.82171497604, -2885.543153946776, 0.02, 0.892, 0.41200000000000003, 192.0, 0.0, 0.0, 0.0, 0.0, 0.0, 0.0, 0.0, 0.0, 0.0, 1.657492309153203E9, 0.0, 2022-07-10 18:31:49.153
44.0, 24569.395133184807, 8612.216545607633, -29056.32901863206, -52235.24448099667, -238.15783717129676, 8343.392115043654, -24698.096477758467, -5444.527321401515, 0.02, 0.892, 0.41200000000000003, 192.0, 0.0, 0.0, 0.0, 0.0, 0.0, 0.0, 0.0, 0.0, 0.0, 1.657492309153244E9, 0.0, 2022-07-10 18:31:49.153
45.0, 17530.36141757505, 9046.60034735207, -28077.2779080007, -50811.25954523797, 614.9188417099526, -1885.8837349276228, -23852.86526118103, -5022.146406429578, 0.02, 0.892, 0.41200000000000003, 192.0, 0.0, 0.0, 0.0, 0.0, 0.0, 0.0, 0.0, 0.0, 0.0, 1.65749230915984E9, 0.0, 2022-07-10 18:31:49.159
46.0, 24501.04349864048, 9526.715818252065, -28357.23350730342, -48839.83568427988, -482.5965145345348, 7418.879260883244, -24912.11443091803, -2340.719382848666, 0.02, 0.892, 0.41200000000000003, 192.0, 0.0, 0.0, 0.0, 0.0, 0.0, 0.0, 0.0, 0.0, 0.0, 1.65749230915986E9, 0.0, 2022-07-10 18:31:49.159
47.0, 32453.79417583873, 9131.402865815506, -29407.877255425126, -50136.39332489888, -1475.058671839079, 18887.22406473447, -25857.54851788861, -2506.234050540215, 0.02, 0.894, 0.4, 192.0, 0.0, 160.0, 27.0, 240.0, 12.0, 128.0, 0.0, 0.0, 0.0, 1.657492309167732E9, 0.0, 2022-07-10 18:31:49.167
48.0, 26572.73728522507, 8609.042597894979, -29233.06426204017, -52146.26218632009, -518.0463812406518, 11132.398084687959, -24930.59932358257, -5107.284201059842, 0.02, 0.894, 0.4, 192.0, 0.0, 0.0, 0.0, 0.0, 0.0, 0.0, 0.0, 0.0, 0.0, 1.657492309167756E9, 0.0, 2022-07-10 18:31:49.167
49.0, 17903.099108111754, 8934.036962275144, -28198.513769926285, -51247.4985417722, 601.1278153810282, -1248.5013900400866, -23841.91290639793, -5358.2719395484855, 0.02, 0.894, 0.4, 192.0, 0.0, 0.0, 0.0, 0.0, 0.0, 0.0, 0.0, 0.0, 0.0, 1.65749230917589E9, 0.0, 2022-07-10 18:31:49.175
50.0, 22434.378854558334, 9517.663361747665, -28171.445807390908, -49002.466976936696, -167.32515899242867, 4597.172689100825, -24546.05991197347, -2703.711712802853, 0.02, 0.894, 0.4, 192.0, 0.0, 0.0, 0.0, 0.0, 0.0, 0.0, 0.0, 0.0, 0.0, 1.65749230917591E9, 0.0, 2022-07-10 18:31:49.175
51.0, 31871.88886068927, 9268.240245370895, -29249.872773870564, -49679.747185676955, -1412.451435619764, 17999.7480511365, -25752.18239452629, -2111.7257609040453, 0.02, 0.894, 0.4, 192.0, 0.0, 0.0, 0.0, 0.0, 0.0, 0.0, 0.0, 0.0, 0.0, 1.657492309183082E9, 0.0, 2022-07-10 18:31:49.183
52.0, 28490.181683323586, 8687.206648255187, -29371.82389161872, -51927.46095984709, -785.864983304141, 13761.365564032265, -25187.487922607415, -4669.569989391564, 0.02, 0.894, 0.4, 192.0, 0.0, 0.0, 0.0, 0.0, 0.0, 0.0, 0.0, 0.0, 0.0, 1.657492309183127E9, 0.0, 2022-07-10 18:31:49.183
53.0, 18891.336785714244, 8851.827246168525, -28368.118806853156, -51620.45974975345, 504.0988927005402, 205.83721468892273, -23924.390843438014, -5623.1848148327845, 0.02, 0.894, 0.4, 192.0, 0.0, 0.0, 0.0, 0.0, 0.0, 0.0, 0.0, 0.0, 0.0, 1.657492309190491E9, 0.0, 2022-07-10 18:31:49.190
54.0, 20544.404750395388, 9452.888006316187, -28053.65211411144, -49319.504120290774, 111.57990832089286, 2051.2419404079847, -24264.60674579224, -3250.1448095017445, 0.02, 0.894, 0.4, 192.0, 0.0, 0.0, 0.0, 0.0, 0.0, 0.0, 0.0, 0.0, 0.0, 1.65749230919052E9, 0.0, 2022-07-10 18:31:49.190
55.0, 30604.500246584448, 9377.450868779524, -29050.696379029323, -49304.01436138325, -1274.6305793083407, 16183.355889720428, -25611.388756202312, -1946.5910728682368, 0.02, 0.894, 0.4, 192.0, 0.0, 0.0, 0.0, 0.0, 0.0, 0.0, 0.0, 0.0, 0.0, 1.657492309197506E9, 0.0, 2022-07-10 18:31:49.197
56.0, 30147.54118294015, 8766.421230604796, -29467.578764865255, -51579.71251961142, -1043.8041143183846, 15986.191151880164, -25436.03932095043, -4172.534247938901, 0.02, 0.894, 0.4, 192.0, 0.0, 0.0, 0.0, 0.0, 0.0, 0.0, 0.0, 0.0, 0.0, 1.657492309205516E9, 0.0, 2022-07-10 18:31:49.205
57.0, 20543.667142828363, 8754.865378721403, -28587.992917060008, -51904.79629096941, 296.0041518216314, 2509.944440119796, -24148.891764747117, -5713.754083365689, 0.024, 0.9, 0.394, 192.0, 0.0, 192.0, 28.0, 32.0, 12.0, 80.0, 0.0, 0.0, 0.0, 1.65749230920555E9, 0.0, 2022-07-10 18:31:49.205
58.0, 19132.713274087106, 9349.399429488114, -28015.520038070685, -49781.04529154841, 324.6367364688798, 154.24938848607405, -24081.456551725456, -3870.785697792256, 0.024, 0.9, 0.394, 192.0, 0.0, 0.0, 0.0, 0.0, 0.0, 0.0, 0.0, 0.0, 0.0, 1.657492309212105E9, 0.0, 2022-07-10 18:31:49.212
59.0, 28656.009275437507, 9461.448724442569, -28814.952530259197, -49058.99453866417, -1034.5728438583426, 13484.360394997644, -25387.156055826672, -1954.7494595944238, 0.024, 0.9, 0.394, 192.0, 0.0, 0.0, 0.0, 0.0, 0.0, 0.0, 0.0, 0.0, 0.0, 1.657492309212169E9, 0.0, 2022-07-10 18:31:49.212
60.0, 31283.702705347863, 8923.15166272541, -29471.98205852295, -51096.84778414343, -1217.3877617582991, 17476.94074832687, -25614.40624170378, -3571.4511360467836, 0.024, 0.9, 0.394, 192.0, 0.0, 0.0, 0.0, 0.0, 0.0, 0.0, 0.0, 0.0, 0.0, 1.657492309220076E9, 0.0, 2022-07-10 18:31:49.220
61.0, 22963.39994232654, 8735.15114011182, -28818.685271583236, -51996.81842289191, 11.086465249832303, 5746.655851203901, -24451.914364327713, -5558.498866379126, 0.024, 0.9, 0.394, 192.0, 0.0, 0.0, 0.0, 0.0, 0.0, 0.0, 0.0, 0.0, 0.0, 1.657492309220101E9, 0.0, 2022-07-10 18:31:49.220
62.0, 18598.73009904982, 9171.636005835058, -28087.85028312806, -50368.985577700805, 450.2982437966161, -573.0316726007071, -23992.384850071056, -4524.976554510183, 0.024, 0.9, 0.394, 192.0, 0.0, 0.0, 0.0, 0.0, 0.0, 0.0, 0.0, 0.0, 0.0, 1.657492309227984E9, 0.0, 2022-07-10 18:31:49.227
63.0, 25390.21824481705, 9425.82004378081, -28545.32343689483, -49139.706687892285, -622.9431179694078, 9195.15004100204, -24994.547664469203, -2398.342180054448, 0.024, 0.9, 0.394, 192.0, 0.0, 0.0, 0.0, 0.0, 0.0, 0.0, 0.0, 0.0, 0.0, 1.657492309228004E9, 0.0, 2022-07-10 18:31:49.228
64.0, 30511.38287918364, 9077.736327378312, -29303.60636754112, -50483.89589594554, -1205.3401714968886, 16569.638737397043, -25598.44709616269, -3057.6739379970954, 0.024, 0.9, 0.394, 192.0, 0.0, 0.0, 0.0, 0.0, 0.0, 0.0, 0.0, 0.0, 0.0, 1.65749230923546E9, 0.0, 2022-07-10 18:31:49.235
65.0, 26119.13098324907, 8853.615385724948, -29032.25618985369, -51651.28280535732, -422.6044324164906, 9879.04636610107, -24876.195177578353, -4916.445006900431, 0.024, 0.9, 0.394, 192.0, 0.0, 0.0, 0.0, 0.0, 0.0, 0.0, 0.0, 0.0, 0.0, 1.657492309235501E9, 0.0, 2022-07-10 18:31:49.235
66.0, 21124.097242843778, 9073.981234309822, -28373.170301100054, -50847.33526078883, 212.09570313640873, 2520.44976001379, -24245.004265904936, -4784.390900658476, 0.024, 0.9, 0.394, 192.0, 0.0, 0.0, 0.0, 0.0, 0.0, 0.0, 0.0, 0.0, 0.0, 1.657492309243119E9, 0.0, 2022-07-10 18:31:49.243
67.0, 24042.542164628765, 9281.919512977543, -28469.819244124803, -49574.80574545929, -377.5209638501363, 7279.069099315298, -24774.0477054176, -3048.8449989372493, 0.018000000000000002, 0.902, 0.396, 192.0, 0.0, 144.0, 28.0, 48.0, 12.0, 96.0, 0.0, 0.0, 0.0, 1.657492309243144E9, 0.0, 2022-07-10 18:31:49.243
68.0, 29516.014995099904, 9142.466979320881, -29127.362862511025, -50126.51385384963, -1094.6990364431188, 15285.59807367302, -25454.881841526254, -2863.079650769192, 0.018000000000000002, 0.902, 0.396, 192.0, 0.0, 0.0, 0.0, 0.0, 0.0, 0.0, 0.0, 0.0, 0.0, 1.657492309250739E9, 0.0, 2022-07-10 18:31:49.250
69.0, 26539.03085458647, 8866.825266698035, -29101.39013545396, -51627.96993589043, -513.1066457160289, 10681.183419368675, -24930.532268349205, -4736.826388457584, 0.018000000000000002, 0.902, 0.396, 192.0, 0.0, 0.0, 0.0, 0.0, 0.0, 0.0, 0.0, 0.0, 0.0, 1.65749230925077E9, 0.0, 2022-07-10 18:31:49.250
70.0, 19767.703982317922, 9013.720931258313, -28337.049882060277, -51138.757304997125, 378.32562665052734, 930.7042873745307, -24049.582964132187, -5136.386172340653, 0.018000000000000002, 0.902, 0.396, 192.0, 0.0, 0.0, 0.0, 0.0, 0.0, 0.0, 0.0, 0.0, 0.0, 1.657492309258218E9, 0.0, 2022-07-10 18:31:49.258
71.0, 21982.91832005004, 9353.333336512249, -28273.079189429187, -49505.247116714374, -115.24559441156322, 4412.033189777517, -24483.653841454252, -3179.5132970229743, 0.018000000000000002, 0.902, 0.396, 192.0, 0.0, 0.0, 0.0, 0.0, 0.0, 0.0, 0.0, 0.0, 0.0, 1.657492309264948E9, 0.0, 2022-07-10 18:31:49.264
72.0, 28795.819437005455, 9265.490980802891, -29013.950111144797, -49797.02678883395, -1048.497980653999, 14368.304832971673, -25395.40384953068, -2540.5439782791113, 0.018000000000000002, 0.902, 0.396, 192.0, 0.0, 0.0, 0.0, 0.0, 0.0, 0.0, 0.0, 0.0, 0.0, 1.657492309264967E9, 0.0, 2022-07-10 18:31:49.264
73.0, 28155.732531038826, 8953.281814251162, -29204.29756692619, -51357.06679309211, -754.6842997889877, 13003.820240952999, -25159.771759482832, -4274.36879567728, 0.018000000000000002, 0.902, 0.396, 192.0, 0.0, 0.0, 0.0, 0.0, 0.0, 0.0, 0.0, 0.0, 0.0, 1.657492309272375E9, 0.0, 2022-07-10 18:31:49.272
74.0, 21102.70662340005, 8942.821197846079, -28511.728764978503, -51428.882948027014, 236.61556680388057, 2764.933140865939, -24198.490285693442, -5281.337235133318, 0.018000000000000002, 0.902, 0.396, 192.0, 0.0, 0.0, 0.0, 0.0, 0.0, 0.0, 0.0, 0.0, 0.0, 1.657492309272397E9, 0.0, 2022-07-10 18:31:49.272
75.0, 21039.87586973618, 9284.042928700797, -28214.651729423014, -49773.155125755686, 53.77829715946879, 3013.0375043198474, -24333.2936565034, -3597.602677059493, 0.018000000000000002, 0.902, 0.396, 192.0, 0.0, 0.0, 0.0, 0.0, 0.0, 0.0, 0.0, 0.0, 0.0, 1.657492309280272E9, 0.0, 2022-07-10 18:31:49.280
76.0, 28496.59663398226, 9324.790158842821, -28884.24293807065, -49444.562130518214, -1010.1647389131474, 13818.384864137754, -25363.329096237314, -2322.45800762868, 0.018000000000000002, 0.902, 0.396, 192.0, 0.0, 0.0, 0.0, 0.0, 0.0, 0.0, 0.0, 0.0, 0.0, 1.657492309280336E9, 0.0, 2022-07-10 18:31:49.280
77.0, 30185.382686302983, 8964.234169034264, -29353.00372278735, -51173.11193622493, -1041.1219049837478, 15741.506605327917, -25436.307541883893, -3878.8323257961665, 0.024, 0.904, 0.394, 192.0, 0.0, 192.0, 28.0, 64.0, 12.0, 80.0, 0.0, 0.0, 0.0, 1.657492309288429E9, 0.0, 2022-07-10 18:31:49.288
78.0, 22051.851099950207, 8840.629022196415, -28670.560261077913, -51789.30482736884, 127.5390538619821, 4157.290358220382, -24309.91373180315, -5545.154874939308, 0.024, 0.904, 0.394, 192.0, 0.0, 0.0, 0.0, 0.0, 0.0, 0.0, 0.0, 0.0, 0.0, 1.657492309288464E9, 0.0, 2022-07-10 18:31:49.288
79.0, 19530.976656791765, 9229.39291350757, -28135.370091840043, -50080.04457712705, 278.7486051021344, 910.2524411979248, -24129.289284859813, -4113.324476876793, 0.024, 0.904, 0.394, 192.0, 0.0, 0.0, 0.0, 0.0, 0.0, 0.0, 0.0, 0.0, 0.0, 1.657492309294851E9, 0.0, 2022-07-10 18:31:49.294
80.0, 24279.29184189938, 9250.560015506748, -28658.311505116406, -49771.545800154905, -531.5915383805678, 8563.914425839714, -24907.30880586014, -2917.707314217963, 0.024, 0.904, 0.394, 192.0, 0.0, 0.0, 0.0, 0.0, 0.0, 0.0, 0.0, 0.0, 0.0, 1.65749230929487E9, 0.0, 2022-07-10 18:31:49.294
81.0, 25149.91464017804, 9076.216408755352, -28895.351755064938, -50700.37254099519, -563.5992364405676, 9930.790654515107, -24970.541890924203, -3817.365028544072, 0.024, 0.904, 0.394, 192.0, 0.0, 0.0, 0.0, 0.0, 0.0, 0.0, 0.0, 0.0, 0.0, 1.657492309303694E9, 0.0, 2022-07-10 18:31:49.303
82.0, 24844.321589985084, 9262.652309257068, -28688.843988042354, -50675.00331103842, -304.81073913702244, 7720.828976729987, -24730.908838618856, -4192.82963190432, 0.024, 0.904, 0.394, 192.0, 0.0, 0.0, 0.0, 0.0, 0.0, 0.0, 0.0, 0.0, 0.0, 1.657492309303734E9, 0.0, 2022-07-10 18:31:49.303
83.0, 24956.974382039833, 9257.64551849908, -28615.485562740036, -50393.661903579465, -293.0537215535309, 7471.919950475687, -24704.89140807288, -3864.0578227112082, 0.024, 0.904, 0.394, 192.0, 0.0, 0.0, 0.0, 0.0, 0.0, 0.0, 0.0, 0.0, 0.0, 1.657492309310956E9, 0.0, 2022-07-10 18:31:49.310
84.0, 24982.053039318685, 9042.241757183285, -28765.152843612774, -50401.35090367209, -488.9891134487526, 9377.00383389042, -24885.64996548295, -3580.123612895443, 0.024, 0.904, 0.394, 192.0, 0.0, 0.0, 0.0, 0.0, 0.0, 0.0, 0.0, 0.0, 0.0, 1.657492309310975E9, 0.0, 2022-07-10 18:31:49.310
85.0, 24867.567404218604, 9025.50030058626, -28837.147812503317, -50642.906206000596, -511.85494802653176, 9776.496562540122, -24927.626541570015, -3834.7993892192117, 0.024, 0.904, 0.394, 192.0, 0.0, 0.0, 0.0, 0.0, 0.0, 0.0, 0.0, 0.0, 0.0, 1.657492309317251E9, 0.0, 2022-07-10 18:31:49.317
86.0, 24932.432166627907, 9222.73209365989, -28697.404706168738, -50659.91588353108, -323.7873701795781, 8059.54731220571, -24750.42191152834, -4129.484788117979, 0.024, 0.904, 0.394, 192.0, 0.0, 0.0, 0.0, 0.0, 0.0, 0.0, 0.0, 0.0, 0.0, 1.657492309317278E9, 0.0, 2022-07-10 18:31:49.317
87.0, 25116.744651406367, 9254.650384742068, -28614.077402839353, -50442.388706492035, -282.41429119280474, 7410.564411945869, -24692.7767625781, -3938.6902974474788, 0.026000000000000002, 0.906, 0.396, 192.0, 0.0, 208.0, 28.0, 80.0, 12.0, 96.0, 0.0, 0.0, 0.0, 1.657492309324449E9, 0.0, 2022-07-10 18:31:49.324
88.0, 25078.612575365612, 9028.629544810003, -28741.661160190244, -50390.040920977706, -465.05039513711876, 9073.333033720617, -24850.602430177027, -3603.481185851239, 0.026000000000000002, 0.906, 0.396, 192.0, 0.0, 0.0, 0.0, 0.0, 0.0, 0.0, 0.0, 0.0, 0.0, 1.657492309333214E9, 0.0, 2022-07-10 18:31:49.333
89.0, 24917.970587965323, 8967.877503380478, -28841.03701603854, -50616.08411265423, -528.618756368012, 9889.931665650805, -24928.252390414764, -3799.4836329798263, 0.026000000000000002, 0.906, 0.396, 192.0, 0.0, 0.0, 0.0, 0.0, 0.0, 0.0, 0.0, 0.0, 0.0, 1.657492309333233E9, 0.0, 2022-07-10 18:31:49.333
90.0, 24983.505902708283, 9194.412433435016, -28727.31134024994, -50687.430880955566, -361.1371351643962, 8397.23746743649, -24808.469391878774, -4186.8840678792085, 0.026000000000000002, 0.906, 0.396, 192.0, 0.0, 0.0, 0.0, 0.0, 0.0, 0.0, 0.0, 0.0, 0.0, 1.657492309340818E9, 0.0, 2022-07-10 18:31:49.340
91.0, 25191.667698820558, 9290.07789970373, -28617.787792418934, -50490.064977415204, -278.36862544639416, 7380.814240075856, -24705.1819807508, -4033.7969701048105, 0.026000000000000002, 0.906, 0.396, 192.0, 0.0, 0.0, 0.0, 0.0, 0.0, 0.0, 0.0, 0.0, 0.0, 1.657492309340847E9, 0.0, 2022-07-10 18:31:49.340
92.0, 25142.7844336968, 9072.930702320422, -28712.358023209337, -50380.183801672916, -433.6461941774123, 8739.576785513973, -24826.306083954107, -3606.6774853083475, 0.026000000000000002, 0.906, 0.396, 192.0, 0.0, 0.0, 0.0, 0.0, 0.0, 0.0, 0.0, 0.0, 0.0, 1.657492309347227E9, 0.0, 2022-07-10 18:31:49.347
93.0, 24926.866582258535, 8961.887235866456, -28842.221658494673, -50583.271751793836, -537.7606198502326, 9913.356293839966, -24935.69552131838, -3704.8686987005117, 0.026000000000000002, 0.906, 0.396, 192.0, 0.0, 0.0, 0.0, 0.0, 0.0, 0.0, 0.0, 0.0, 0.0, 1.657492309347246E9, 0.0, 2022-07-10 18:31:49.347
94.0, 24971.32420198014, 9152.167636414486, -28762.872965678333, -50703.34532300774, -400.207984472273, 8738.392143057841, -24822.171011229875, -4070.230313566961, 0.026000000000000002, 0.906, 0.396, 192.0, 0.0, 0.0, 0.0, 0.0, 0.0, 0.0, 0.0, 0.0, 0.0, 1.657492309355399E9, 0.0, 2022-07-10 18:31:49.355
95.0, 25226.067033537274, 9299.309170163771, -28628.58368499085, -50534.63435585909, -277.407500434816, 7436.403028536204, -24691.010974766134, -4032.0535340372962, 0.026000000000000002, 0.906, 0.396, 192.0, 0.0, 0.0, 0.0, 0.0, 0.0, 0.0, 0.0, 0.0, 0.0, 1.657492309355456E9, 0.0, 2022-07-10 18:31:49.355
96.0, 25214.28766420933, 9124.004438400798, -28689.20161595364, -50381.30138889568, -396.2293739592283, 8431.837967853304, -24791.370307370464, -3678.9183233879003, 0.026000000000000002, 0.906, 0.396, 192.0, 0.0, 0.0, 0.0, 0.0, 0.0, 0.0, 0.0, 0.0, 0.0, 1.657492309363173E9, 0.0, 2022-07-10 18:31:49.363
97.0, 24958.449597173883, 8956.947500341834, -28837.259571225593, -50543.23977747438, -537.9841372947857, 9872.4302497423, -24935.136727707, -3679.119489087998, 0.026000000000000002, 0.908, 0.396, 192.0, 0.0, 208.0, 28.0, 96.0, 12.0, 96.0, 0.0, 0.0, 0.0, 1.657492309363196E9, 0.0, 2022-07-10 18:31:49.363
98.0, 24963.344629209594, 9119.534089509736, -28793.561910815468, -50699.07613981678, -436.55192095660226, 9071.65665288647, -24864.326401272585, -4024.588051389224, 0.026000000000000002, 0.908, 0.396, 192.0, 0.0, 0.0, 0.0, 0.0, 0.0, 0.0, 0.0, 0.0, 0.0, 1.657492309370454E9, 0.0, 2022-07-10 18:31:49.370
99.0, 25222.446050935516, 9310.060359246774, -28655.808109737412, -50580.52248722583, -295.9594483327208, 7559.248216062572, -24734.194545053786, -4114.598526310745, 0.026000000000000002, 0.908, 0.396, 192.0, 0.0, 0.0, 0.0, 0.0, 0.0, 0.0, 0.0, 0.0, 0.0, 1.657492309370498E9, 0.0, 2022-07-10 18:31:49.370
100.0, 25260.53342348736, 9168.506761611314, -28675.790569280456, -50403.4966711398, -370.50251609116987, 8119.114711179103, -24800.847447019514, -3782.362196727061, 0.026000000000000002, 0.908, 0.396, 192.0, 0.0, 0.0, 0.0, 0.0, 0.0, 0.0, 0.0, 0.0, 0.0, 1.657492309377971E9, 0.0, 2022-07-10 18:31:49.377
101.0, 24996.782838914736, 8949.906700838412, -28826.88836179833, -50508.75103577984, -539.3475937065595, 9737.381009743334, -24962.45055943138, -3658.891160355945, 0.026000000000000002, 0.908, 0.396, 192.0, 0.0, 0.0, 0.0, 0.0, 0.0, 0.0, 0.0, 0.0, 0.0, 1.657492309377997E9, 0.0, 2022-07-10 18:31:49.377
102.0, 24932.767442794735, 9070.762583108257, -28821.456887895692, -50694.203459525525, -481.9483139453309, 9337.195377015518, -24932.186297438897, -4000.0905394662072, 0.026000000000000002, 0.908, 0.396, 192.0, 0.0, 0.0, 0.0, 0.0, 0.0, 0.0, 0.0, 0.0, 0.0, 1.657492309384801E9, 0.0, 2022-07-10 18:31:49.384
103.0, 25207.582140872735, 9294.212972427962, -28660.770197006488, -50607.41163580557, -288.8739453403885, 7723.421779086802, -24733.90397237587, -4146.002727270452, 0.026000000000000002, 0.908, 0.396, 192.0, 0.0, 0.0, 0.0, 0.0, 0.0, 0.0, 0.0, 0.0, 0.0, 1.657492309392995E9, 0.0, 2022-07-10 18:31:49.392
104.0, 25314.75875553593, 9218.261744768828, -28644.229906109562, -50405.553031629686, -329.822341182511, 7850.759667248687, -24743.80579516957, -3830.4407990504264, 0.026000000000000002, 0.908, 0.396, 192.0, 0.0, 0.0, 0.0, 0.0, 0.0, 0.0, 0.0, 0.0, 0.0, 1.657492309393017E9, 0.0, 2022-07-10 18:31:49.393
105.0, 25059.05479896722, 8973.44308774985, -28803.620195820356, -50471.065994628196, -511.9890584932636, 9547.011202217485, -24900.849151712555, -3623.463645394283, 0.026000000000000002, 0.908, 0.396, 192.0, 0.0, 0.0, 0.0, 0.0, 0.0, 0.0, 0.0, 0.0, 0.0, 1.657492309400044E9, 0.0, 2022-07-10 18:31:49.400
106.0, 24932.8344980281, 9030.104759944054, -28839.673559626768, -50678.57959015126, -498.60036356453463, 9586.394975947736, -24909.342814605574, -3915.3327244916827, 0.026000000000000002, 0.908, 0.396, 192.0, 0.0, 0.0, 0.0, 0.0, 0.0, 0.0, 0.0, 0.0, 0.0, 1.657492309400065E9, 0.0, 2022-07-10 18:31:49.400
107.0, 25170.388838099105, 9281.02544319933, -28702.29973820445, -50653.031546238846, -331.7669429501227, 7958.76329645673, -24772.9971734282, -4159.614939643734, 0.022, 0.902, 0.39, 192.0, 0.0, 176.0, 28.0, 48.0, 12.0, 48.0, 0.0, 0.0, 0.0, 1.657492309407689E9, 0.0, 2022-07-10 18:31:49.407
108.0, 25340.9326482931, 9271.6377105281, -28639.24546709603, -50447.015517594285, -312.3656287629162, 7649.169284006272, -24728.89718161788, -3917.389084981571, 0.022, 0.902, 0.39, 192.0, 0.0, 0.0, 0.0, 0.0, 0.0, 0.0, 0.0, 0.0, 0.0, 1.657492309407874E9, 0.0, 2022-07-10 18:31:49.407
109.0, 25124.21013405444, 9018.705370271846, -28775.009962917564, -50444.57917744866, -489.8608314825096, 9292.693053805, -24879.480884013283, -3641.9038345699114, 0.022, 0.902, 0.39, 192.0, 0.0, 0.0, 0.0, 0.0, 0.0, 0.0, 0.0, 0.0, 0.0, 1.657492309415884E9, 0.0, 2022-07-10 18:31:49.415
110.0, 24943.049245244176, 9006.478966054794, -28841.908734072298, -50648.762363047885, -518.3146021741155, 9770.796867704019, -24923.424413612418, -3865.4883343563483, 0.022, 0.902, 0.39, 192.0, 0.0, 0.0, 0.0, 0.0, 0.0, 0.0, 0.0, 0.0, 0.0, 1.657492309415987E9, 0.0, 2022-07-10 18:31:49.415
111.0, 25134.31312254824, 9255.432695798005, -28717.20835175614, -50674.44451742703, -350.56476003703597, 8238.607137037176, -24788.71044978028, -4156.150419253161, 0.022, 0.902, 0.39, 192.0, 0.0, 0.0, 0.0, 0.0, 0.0, 0.0, 0.0, 0.0, 0.0, 1.657492309422549E9, 0.0, 2022-07-10 18:31:49.422
112.0, 25342.96665703853, 9312.451995903491, -28633.121089115273, -50481.45955579991, -299.6921896567571, 7497.57975311038, -24736.586181710503, -4007.578373858735, 0.022, 0.902, 0.39, 192.0, 0.0, 0.0, 0.0, 0.0, 0.0, 0.0, 0.0, 0.0, 0.0, 1.657492309422579E9, 0.0, 2022-07-10 18:31:49.422
113.0, 25229.218629505474, 9081.804344869179, -28753.149956840272, -50414.35961894508, -480.42839532237, 9040.74419030478, -24886.342869561064, -3651.425677707872, 0.022, 0.902, 0.39, 192.0, 0.0, 0.0, 0.0, 0.0, 0.0, 0.0, 0.0, 0.0, 0.0, 1.657492309430207E9, 0.0, 2022-07-10 18:31:49.430
114.0, 25081.138322489063, 8979.34394828605, -28867.702647173723, -50620.532109800835, -570.617684199534, 10038.190786622858, -24981.114266051565, -3789.134775297019, 0.022, 0.902, 0.39, 192.0, 0.0, 0.0, 0.0, 0.0, 0.0, 0.0, 0.0, 0.0, 0.0, 1.657492309430244E9, 0.0, 2022-07-10 18:31:49.430
115.0, 25277.230176595473, 9178.900322783033, -28773.22182336114, -50713.94004987956, -420.07868529304096, 8767.561169572016, -24851.29533425514, -4159.436125688091, 0.022, 0.902, 0.39, 192.0, 0.0, 0.0, 0.0, 0.0, 0.0, 0.0, 0.0, 0.0, 0.0, 1.657492309438089E9, 0.0, 2022-07-10 18:31:49.438
116.0, 25504.86034212832, 9298.236286429918, -28644.699292743124, -50523.25731793133, -311.27039328460614, 7638.529853645547, -24715.21791401123, -4052.1254005581623, 0.022, 0.902, 0.39, 192.0, 0.0, 0.0, 0.0, 0.0, 0.0, 0.0, 0.0, 0.0, 0.0, 1.657492309438131E9, 0.0, 2022-07-10 18:31:49.438
117.0, 26484.112618459778, 9137.415485073983, -28747.271448048527, -50200.855755907985, -566.4379079863916, 10090.650330859462, -24935.159079451452, -3397.2192880176653, 0.028, 0.898, 0.392, 192.0, 0.0, 224.0, 28.0, 16.0, 12.0, 64.0, 0.0, 0.0, 0.0, 1.657492309445365E9, 0.0, 2022-07-10 18:31:49.445
118.0, 27766.990991472125, 8971.207913304319, -29016.900541412895, -50503.140747921556, -827.1039518241826, 13170.296033656125, -25198.03794599032, -3433.6302797353605, 0.028, 0.898, 0.392, 192.0, 0.0, 0.0, 0.0, 0.0, 0.0, 0.0, 0.0, 0.0, 0.0, 1.657492309452459E9, 0.0, 2022-07-10 18:31:49.452
119.0, 26581.11918939581, 9015.64318128147, -28941.19518294277, -51055.09472550091, -532.8879395589756, 10671.01337564151, -24932.365111394538, -4298.106348288817, 0.028, 0.898, 0.392, 192.0, 0.0, 0.0, 0.0, 0.0, 0.0, 0.0, 0.0, 0.0, 0.0, 1.657492309452479E9, 0.0, 2022-07-10 18:31:49.452
120.0, 24526.72565301963, 9201.408529449527, -28590.093981038808, -50776.36847214324, -150.36018495085062, 6456.480199871087, -24562.95783078168, -4411.340285699402, 0.028, 0.898, 0.392, 192.0, 0.0, 0.0, 0.0, 0.0, 0.0, 0.0, 0.0, 0.0, 0.0, 1.657492309461379E9, 0.0, 2022-07-10 18:31:49.461
121.0, 25710.18346669477, 9229.01293385183, -28612.646891194214, -50041.80074236402, -430.62870867594586, 8614.585830519894, -24818.34886292802, -3444.9179106852903, 0.028, 0.898, 0.392, 192.0, 0.0, 0.0, 0.0, 0.0, 0.0, 0.0, 0.0, 0.0, 0.0, 1.657492309461424E9, 0.0, 2022-07-10 18:31:49.461
122.0, 28131.480888304817, 9028.026047709709, -29022.510829271177, -50341.73880120979, -884.3914728631346, 13379.374251291067, -25260.823996165276, -3252.6705566251944, 0.028, 0.898, 0.392, 192.0, 0.0, 0.0, 0.0, 0.0, 0.0, 0.0, 0.0, 0.0, 0.0, 1.657492309469129E9, 0.0, 2022-07-10 18:31:49.469
123.0, 26756.44627290324, 8955.025250318677, -29022.55553276009, -51154.71645053822, -610.7167137523548, 11174.329957286116, -25024.655464250503, -4310.243345528048, 0.028, 0.898, 0.392, 192.0, 0.0, 0.0, 0.0, 0.0, 0.0, 0.0, 0.0, 0.0, 0.0, 1.657492309469223E9, 0.0, 2022-07-10 18:31:49.469
124.0, 23752.46122508779, 9150.804180002711, -28587.814103104367, -50954.91420685223, -87.86470745381206, 5649.157541889852, -24513.359309835352, -4649.788695548617, 0.028, 0.898, 0.392, 192.0, 0.0, 0.0, 0.0, 0.0, 0.0, 0.0, 0.0, 0.0, 0.0, 1.657492309477395E9, 0.0, 2022-07-10 18:31:49.477
125.0, 24449.187451504167, 9274.766954751845, -28502.653956729646, -50062.52080947409, -278.25686672411763, 6720.074322232524, -24689.289890443077, -3621.116712226476, 0.028, 0.898, 0.392, 192.0, 0.0, 0.0, 0.0, 0.0, 0.0, 0.0, 0.0, 0.0, 0.0, 1.657492309477416E9, 0.0, 2022-07-10 18:31:49.477
126.0, 27468.081112871303, 9089.739214150812, -28936.6801305628, -50159.77324959913, -828.6238704471434, 12373.63515778007, -25202.37418441465, -3126.9643458085475, 0.028, 0.898, 0.392, 192.0, 0.0, 0.0, 0.0, 0.0, 0.0, 0.0, 0.0, 0.0, 0.0, 1.657492309483651E9, 0.0, 2022-07-10 18:31:49.483
127.0, 26895.65293737089, 8962.669546922392, -29049.31057087309, -51049.30562368699, -674.9332755724521, 11686.967216368583, -25063.502796113826, -4108.362389607714, 0.042, 0.896, 0.388, 192.0, 1.0, 80.0, 28.0, 0.0, 12.0, 32.0, 0.0, 0.0, 0.0, 1.657492309483707E9, 0.0, 2022-07-10 18:31:49.483
128.0, 23778.478655633768, 9126.910165179988, -28644.63223750976, -51060.749716848106, -116.43023686769449, 6005.37729327408, -24541.76837703805, -4707.925582876871, 0.042, 0.896, 0.388, 192.0, 0.0, 0.0, 0.0, 0.0, 0.0, 0.0, 0.0, 0.0, 0.0, 1.657492309490476E9, 0.0, 2022-07-10 18:31:49.490
129.0, 23706.34957627649, 9284.847591501188, -28444.941752546045, -50159.90736006587, -150.6507576287696, 5629.197434091263, -24525.988045452603, -3811.553574985692, 0.042, 0.896, 0.388, 192.0, 0.0, 0.0, 0.0, 0.0, 0.0, 0.0, 0.0, 0.0, 0.0, 1.657492309490507E9, 0.0, 2022-07-10 18:31:49.490
130.0, 26826.36252955944, 9132.609860016091, -28841.640513138835, -50014.59866936191, -738.255767614337, 11364.118619456127, -25091.44247668296, -3069.9003422141486, 0.042, 0.896, 0.388, 192.0, 0.0, 0.0, 0.0, 0.0, 0.0, 0.0, 0.0, 0.0, 0.0, 1.657492309498667E9, 0.0, 2022-07-10 18:31:49.498
131.0, 27106.720460262357, 8952.72302063978, -29067.929574004364, -50903.572249838384, -746.3694508516135, 12214.736606447294, -25139.16345109504, -3902.100491774141, 0.042, 0.896, 0.388, 192.0, 0.0, 0.0, 0.0, 0.0, 0.0, 0.0, 0.0, 0.0, 0.0, 1.657492309498726E9, 0.0, 2022-07-10 18:31:49.498
132.0, 24094.085287342703, 9082.407841969472, -28713.565017409925, -51129.74955198164, -179.86448763185592, 6753.043145304102, -24624.045148378034, -4734.926490178882, 0.042, 0.896, 0.388, 192.0, 0.0, 0.0, 0.0, 0.0, 0.0, 0.0, 0.0, 0.0, 0.0, 1.657492309505451E9, 0.0, 2022-07-10 18:31:49.505
133.0, 23262.153358716176, 9291.79898402679, -28437.789194320347, -50317.53186196469, -82.25441959553, 4961.237902788866, -24511.50411504556, -4056.774563404866, 0.042, 0.896, 0.388, 192.0, 0.0, 0.0, 0.0, 0.0, 0.0, 0.0, 0.0, 0.0, 0.0, 1.657492309512185E9, 0.0, 2022-07-10 18:31:49.512
134.0, 26224.877086267126, 9199.776852104289, -28762.202413344672, -49938.58038646942, -658.9741300313628, 10328.76346454185, -25027.18121137395, -3080.6068278082407, 0.042, 0.896, 0.388, 192.0, 0.0, 0.0, 0.0, 0.0, 0.0, 0.0, 0.0, 0.0, 0.0, 1.657492309512229E9, 0.0, 2022-07-10 18:31:49.512
135.0, 27308.064974315763, 8989.558695502126, -29074.8139112966, -50745.0760299058, -811.6812481500207, 12625.651076513657, -25193.925225010542, -3666.5131052152046, 0.042, 0.896, 0.388, 192.0, 0.0, 0.0, 0.0, 0.0, 0.0, 0.0, 0.0, 0.0, 0.0, 1.657492309520113E9, 0.0, 2022-07-10 18:31:49.520
136.0, 24531.41951935524, 9058.782048080213, -28789.426838091236, -51173.73778506968, -271.75250908762325, 7676.125487819373, -24704.198503994765, -4643.306689656579, 0.042, 0.896, 0.388, 192.0, 0.0, 0.0, 0.0, 0.0, 0.0, 0.0, 0.0, 0.0, 0.0, 1.657492309520157E9, 0.0, 2022-07-10 18:31:49.520
137.0, 22957.990820168357, 9276.845666986188, -28437.990360020445, -50474.195238851935, -29.30313698090756, 4553.296214735057, -24446.72875961408, -4248.217254664571, 0.04, 0.918, 0.388, 192.0, 1.0, 64.0, 28.0, 176.0, 12.0, 32.0, 0.0, 0.0, 0.0, 1.657492309528239E9, 0.0, 2022-07-10 18:31:49.528
138.0, 25599.654090363278, 9248.347192805672, -28665.53111857547, -49879.52707761849, -543.9967565532633, 9232.812730409232, -24896.781134221692, -3136.6650029021507, 0.04, 0.918, 0.388, 192.0, 0.0, 0.0, 0.0, 0.0, 0.0, 0.0, 0.0, 0.0, 0.0, 1.657492309528265E9, 0.0, 2022-07-10 18:31:49.528
139.0, 27438.800327634854, 9022.102835429054, -29047.008341194196, -50561.88113235011, -830.3002512812915, 12856.857521159354, -25198.50733262388, -3461.3240911154858, 0.04, 0.918, 0.388, 192.0, 0.0, 0.0, 0.0, 0.0, 0.0, 0.0, 0.0, 0.0, 0.0, 1.657492309536134E9, 0.0, 2022-07-10 18:31:49.536
140.0, 25057.49017685535, 9028.674248298914, -28862.67350467128, -51180.75623282865, -366.5462573225805, 8701.489412962128, -24796.399449872908, -4553.13975252387, 0.04, 0.918, 0.388, 192.0, 0.0, 0.0, 0.0, 0.0, 0.0, 0.0, 0.0, 0.0, 0.0, 1.657492309536166E9, 0.0, 2022-07-10 18:31:49.536
141.0, 22845.628600791526, 9244.525044503815, -28461.414988209606, -50637.31826988677, -2.793968056913383, 4454.9038356427955, -24424.421718647685, -4425.891271339807, 0.04, 0.918, 0.388, 192.0, 0.0, 0.0, 0.0, 0.0, 0.0, 0.0, 0.0, 0.0, 0.0, 1.657492309544014E9, 0.0, 2022-07-10 18:31:49.544
142.0, 24955.923850050433, 9274.677547774023, -28585.13189376973, -49883.08100498689, -427.20889177428387, 8072.913655389983, -24805.317795910574, -3296.5693827354175, 0.04, 0.918, 0.388, 192.0, 0.0, 0.0, 0.0, 0.0, 0.0, 0.0, 0.0, 0.0, 0.0, 1.657492309544033E9, 0.0, 2022-07-10 18:31:49.544
143.0, 27461.442644768078, 9058.111495746552, -29025.12598337245, -50393.28192392373, -851.4226497915566, 12830.97420108011, -25232.414928962582, -3324.129083648811, 0.04, 0.918, 0.388, 192.0, 0.0, 0.0, 0.0, 0.0, 0.0, 0.0, 0.0, 0.0, 0.0, 1.657492309552767E9, 0.0, 2022-07-10 18:31:49.552
144.0, 25643.284695540035, 9018.437149338382, -28939.675264319812, -51163.50068610915, -471.8229737070768, 9787.448917323223, -24889.94150041837, -4419.610431147866, 0.04, 0.918, 0.388, 192.0, 0.0, 0.0, 0.0, 0.0, 0.0, 0.0, 0.0, 0.0, 0.0, 1.657492309552805E9, 0.0, 2022-07-10 18:31:49.552
145.0, 22892.76842984777, 9227.738884417879, -28498.92121540561, -50799.3907689322, 7.733703581536243, 4645.139532701914, -24419.079651722866, -4558.347708981956, 0.04, 0.918, 0.388, 192.0, 0.0, 0.0, 0.0, 0.0, 0.0, 0.0, 0.0, 0.0, 0.0, 1.657492309560419E9, 0.0, 2022-07-10 18:31:49.560
146.0, 24315.47931617252, 9321.683266363534, -28492.752133935945, -49919.469644960125, -290.1032912854304, 6939.747266739281, -24656.79045400506, -3420.129826084355, 0.04, 0.918, 0.388, 192.0, 0.0, 0.0, 0.0, 0.0, 0.0, 0.0, 0.0, 0.0, 0.0, 1.657492309560482E9, 0.0, 2022-07-10 18:31:49.560
147.0, 27351.18148937005, 9115.600182485603, -28956.841404061488, -50210.75757870169, -821.82894013273, 12547.397619175628, -25196.18275120053, -3138.654308158673, 0.034, 0.912, 0.402, 192.0, 1.0, 16.0, 28.0, 128.0, 12.0, 144.0, 0.0, 0.0, 0.0, 1.657492309566569E9, 0.0, 2022-07-10 18:31:49.566
148.0, 26238.221077706945, 8995.750128716247, -28995.21934929125, -51110.57175523898, -566.8178876421318, 10834.181110165253, -24971.614774658057, -4237.667231281666, 0.034, 0.912, 0.402, 192.0, 0.0, 0.0, 0.0, 0.0, 0.0, 0.0, 0.0, 0.0, 0.0, 1.65749230956661E9, 0.0, 2022-07-10 18:31:49.566
149.0, 23092.682432256035, 9175.368747159095, -28561.863727791755, -50974.1814105727, -17.12143625276521, 5102.746796935416, -24431.149593728733, -4672.475716170754, 0.034, 0.912, 0.402, 192.0, 0.0, 0.0, 0.0, 0.0, 0.0, 0.0, 0.0, 0.0, 0.0, 1.657492309572429E9, 0.0, 2022-07-10 18:31:49.572
150.0, 23691.038631324605, 9328.679362378045, -28442.34895018923, -50044.57235867648, -179.26099053156264, 5869.746907919277, -24555.358237666875, -3651.5821399190595, 0.034, 0.912, 0.402, 192.0, 0.0, 0.0, 0.0, 0.0, 0.0, 0.0, 0.0, 0.0, 0.0, 1.657492309580299E9, 0.0, 2022-07-10 18:31:49.580
151.0, 27057.88189862751, 9156.883854494556, -28879.593775223944, -50060.978539106676, -773.0574337312501, 11930.668286164795, -25121.036186341786, -3045.2240163354895, 0.034, 0.912, 0.402, 192.0, 0.0, 0.0, 0.0, 0.0, 0.0, 0.0, 0.0, 0.0, 0.0, 1.65749230958032E9, 0.0, 2022-07-10 18:31:49.580
152.0, 26780.139122025863, 8985.244808822252, -29039.07347191256, -51007.01612317755, -664.1820864894494, 11748.389810131766, -25054.67385705398, -4033.5511009158017, 0.034, 0.912, 0.402, 192.0, 0.0, 0.0, 0.0, 0.0, 0.0, 0.0, 0.0, 0.0, 0.0, 1.657492309587906E9, 0.0, 2022-07-10 18:31:49.587
153.0, 23466.381247804315, 9125.390246557028, -28638.9101909292, -51104.5144324916, -79.4380997941613, 5831.637183622978, -24498.3836410503, -4735.418228556899, 0.034, 0.912, 0.402, 192.0, 0.0, 0.0, 0.0, 0.0, 0.0, 0.0, 0.0, 0.0, 0.0, 1.657492309587965E9, 0.0, 2022-07-10 18:31:49.587
154.0, 23181.754133910435, 9321.683266363534, -28416.644444065627, -50187.66822667936, -90.70337899963606, 5021.185281418, -24483.296213542966, -3884.4202619099933, 0.034, 0.912, 0.402, 192.0, 0.0, 0.0, 0.0, 0.0, 0.0, 0.0, 0.0, 0.0, 0.0, 1.657492309594944E9, 0.0, 2022-07-10 18:31:49.594
155.0, 26628.8848672968, 9196.20057299144, -28818.84173379442, -49950.516218008546, -716.6192789815998, 11104.190183185361, -25083.172331234495, -3042.430048278576, 0.034, 0.912, 0.402, 192.0, 0.0, 0.0, 0.0, 0.0, 0.0, 0.0, 0.0, 0.0, 0.0, 1.657492309594964E9, 0.0, 2022-07-10 18:31:49.594
156.0, 27230.884400711588, 8979.701576197336, -29099.311423219613, -50904.712188805606, -775.2926081767807, 12480.789420698813, -25174.41215210106, -3871.746822803834, 0.034, 0.912, 0.402, 192.0, 0.0, 0.0, 0.0, 0.0, 0.0, 0.0, 0.0, 0.0, 0.0, 1.657492309603051E9, 0.0, 2022-07-10 18:31:49.603
157.0, 23951.503509462298, 9076.88696108901, -28747.271448048527, -51231.85232065348, -186.94999062418827, 6731.876043304926, -24624.447479778228, -4776.254865676745, 0.036000000000000004, 0.886, 0.406, 192.0, 1.0, 32.0, 27.0, 176.0, 12.0, 176.0, 0.0, 0.0, 0.0, 1.657492309603082E9, 0.0, 2022-07-10 18:31:49.603
158.0, 22783.334288994585, 9302.259600431873, -28400.37237410216, -50362.19064738639, -12.338162939329498, 4372.180029413704, -24416.464497621597, -4106.641305284656, 0.036000000000000004, 0.886, 0.406, 192.0, 0.0, 0.0, 0.0, 0.0, 0.0, 0.0, 0.0, 0.0, 0.0, 1.657492309611035E9, 0.0, 2022-07-10 18:31:49.611
159.0, 26033.43439500742, 9249.844759684178, -28693.023764255497, -49840.880911455264, -588.8343559306093, 10007.12186182998, -24942.021064999233, -3016.3902659881433, 0.036000000000000004, 0.886, 0.406, 192.0, 0.0, 0.0, 0.0, 0.0, 0.0, 0.0, 0.0, 0.0, 0.0, 1.657492309611056E9, 0.0, 2022-07-10 18:31:49.611
160.0, 27531.11303223527, 9018.280687127195, -29066.8119867816, -50682.35703496421, -807.5014719368783, 12963.698859655722, -25178.83779750321, -3567.740746467203, 0.036000000000000004, 0.886, 0.406, 192.0, 0.0, 0.0, 0.0, 0.0, 0.0, 0.0, 0.0, 0.0, 0.0, 1.657492309619089E9, 0.0, 2022-07-10 18:31:49.619
161.0, 24558.53218537953, 9051.160103220953, -28804.26839640956, -51236.03209686662, -258.76614555908986, 7865.578873822556, -24676.638803081372, -4657.1200677299585, 0.036000000000000004, 0.886, 0.406, 192.0, 0.0, 0.0, 0.0, 0.0, 0.0, 0.0, 0.0, 0.0, 0.0, 1.657492309619109E9, 0.0, 2022-07-10 18:31:49.619
162.0, 22579.821655729014, 9303.645408588101, -28395.387935088627, -50515.031875971785, 46.33516625585154, 4104.33907560576, -24393.285738621445, -4324.034371856973, 0.036000000000000004, 0.886, 0.406, 192.0, 0.0, 0.0, 0.0, 0.0, 0.0, 0.0, 0.0, 0.0, 0.0, 1.657492309626996E9, 0.0, 2022-07-10 18:31:49.626
163.0, 25371.64394517469, 9327.18179549954, -28599.101734054297, -49798.79257664592, -478.9308284438644, 8833.588222692993, -24854.513985456706, -3130.719438877039, 0.036000000000000004, 0.886, 0.406, 192.0, 0.0, 0.0, 0.0, 0.0, 0.0, 0.0, 0.0, 0.0, 0.0, 1.6574923096271E9, 0.0, 2022-07-10 18:31:49.627
164.0, 27677.405199695255, 9086.02882457123, -29031.6526927534, -50477.972683664884, -833.8541786496853, 13156.415600349379, -25171.662887533057, -3366.2397702026096, 0.036000000000000004, 0.886, 0.406, 192.0, 0.0, 0.0, 0.0, 0.0, 0.0, 0.0, 0.0, 0.0, 0.0, 1.657492309633996E9, 0.0, 2022-07-10 18:31:49.633
165.0, 25227.698710882512, 9054.468161400338, -28867.590888451447, -51211.109901798955, -355.34803335047167, 9057.820923068633, -24742.57644922453, -4523.903670776328, 0.036000000000000004, 0.886, 0.406, 192.0, 0.0, 0.0, 0.0, 0.0, 0.0, 0.0, 0.0, 0.0, 0.0, 1.657492309649111E9, 0.0, 2022-07-10 18:31:49.649
166.0, 22578.502902806154, 9292.134260193618, -28419.10313595571, -50685.262761743405, 75.6606549812144, 4172.981282828007, -24325.872877344238, -4478.619036509876, 0.036000000000000004, 0.886, 0.406, 192.0, 0.0, 0.0, 0.0, 0.0, 0.0, 0.0, 0.0, 0.0, 0.0, 1.657492309649131E9, 0.0, 2022-07-10 18:31:49.649
167.0, 24686.40651540834, 9376.310929812304, -28498.563587494325, -49809.27554479546, -343.4792570447036, 7627.286926184527, -24703.058565027546, -3256.8503328383367, 0.03, 0.882, 0.40800000000000003, 192.0, 0.0, 240.0, 27.0, 144.0, 12.0, 192.0, 0.0, 0.0, 0.0, 1.657492309662615E9, 0.0, 2022-07-10 18:31:49.662
168.0, 27635.249809652545, 9151.318270125184, -28975.147482770382, -50276.784631822666, -831.3954867596015, 13001.629769996378, -25190.84068427571, -3196.0088844309907, 0.03, 0.882, 0.40800000000000003, 192.0, 0.0, 0.0, 0.0, 0.0, 0.0, 0.0, 0.0, 0.0, 0.0, 1.657492309669033E9, 0.0, 2022-07-10 18:31:49.669
169.0, 25874.44643669682, 9061.687774859402, -28929.706386292743, -51150.04493594706, -466.1232788709735, 10173.977634188848, -24875.189349077864, -4372.0235672025165, 0.03, 0.882, 0.40800000000000003, 192.0, 0.0, 0.0, 0.0, 0.0, 0.0, 0.0, 0.0, 0.0, 0.0, 1.657492309669062E9, 0.0, 2022-07-10 18:31:49.669
170.0, 22742.877631530482, 9273.023518684331, -28470.758017391923, -50838.90865312918, 55.074698337876605, 4518.159272451315, -24354.30429629139, -4624.039485936104, 0.03, 0.882, 0.40800000000000003, 192.0, 0.0, 0.0, 0.0, 0.0, 0.0, 0.0, 0.0, 0.0, 0.0, 1.657492309675324E9, 0.0, 2022-07-10 18:31:49.675
171.0, 24018.581094572677, 9406.262267382415, -28429.42964189406, -49878.11891771781, -221.34932534090584, 6471.9029035452495, -24578.469941433665, -3455.6020445349272, 0.03, 0.882, 0.40800000000000003, 192.0, 0.0, 0.0, 0.0, 0.0, 0.0, 0.0, 0.0, 0.0, 0.0, 1.657492309675353E9, 0.0, 2022-07-10 18:31:49.675
172.0, 27415.37569944569, 9207.957590574932, -28910.506237805635, -50090.68400748778, -807.345009725691, 12550.236290721452, -25148.014741899344, -3050.7672489604056, 0.03, 0.882, 0.40800000000000003, 192.0, 0.0, 0.0, 0.0, 0.0, 0.0, 0.0, 0.0, 0.0, 0.0, 1.657492309682086E9, 0.0, 2022-07-10 18:31:49.682
173.0, 26486.168978949667, 9061.352498692573, -28989.564357944055, -51061.576731392954, -576.5408964801903, 11224.777844521743, -24968.060847289664, -4175.015291573441, 0.03, 0.882, 0.40800000000000003, 192.0, 0.0, 0.0, 0.0, 0.0, 0.0, 0.0, 0.0, 0.0, 0.0, 1.65749230968212E9, 0.0, 2022-07-10 18:31:49.682
174.0, 23075.80686519228, 9253.622204497124, -28533.991102455988, -50987.99478864608, 22.128227010753992, 5149.0149079579005, -24403.299320137423, -4716.709818447807, 0.03, 0.882, 0.40800000000000003, 192.0, 0.0, 0.0, 0.0, 0.0, 0.0, 0.0, 0.0, 0.0, 0.0, 1.657492309688216E9, 0.0, 2022-07-10 18:31:49.688
175.0, 23444.834166149398, 9422.690799557067, -28375.651344734593, -50008.966029759176, -103.13094891678679, 5470.3882897363055, -24499.702393973163, -3669.307073272118, 0.03, 0.882, 0.40800000000000003, 192.0, 0.0, 0.0, 0.0, 0.0, 0.0, 0.0, 0.0, 0.0, 0.0, 1.657492309688237E9, 0.0, 2022-07-10 18:31:49.688
176.0, 27039.77698561871, 9259.634823755601, -28832.677463612257, -49959.3451570684, -740.3121281042252, 11814.282752786012, -25105.188799522974, -2979.1299079811465, 0.03, 0.882, 0.40800000000000003, 192.0, 0.0, 0.0, 0.0, 0.0, 0.0, 0.0, 0.0, 0.0, 0.0, 1.657492309694783E9, 0.0, 2022-07-10 18:31:49.694
177.0, 27017.626406863503, 9074.763545365757, -29038.04529166762, -50950.68972715017, -679.805955863709, 12115.740730254738, -25071.68353458447, -3955.2752918333167, 0.032, 0.882, 0.404, 192.0, 1.0, 0.0, 27.0, 144.0, 12.0, 160.0, 0.0, 0.0, 0.0, 1.657492309694826E9, 0.0, 2022-07-10 18:31:49.694
178.0, 23548.27803948856, 9201.721453871902, -28629.410699535692, -51114.52801400757, -70.85502992332339, 6028.5560522742335, -24504.977405664613, -4759.021670701703, 0.032, 0.882, 0.404, 192.0, 0.0, 0.0, 0.0, 0.0, 0.0, 0.0, 0.0, 0.0, 0.0, 1.65749230970091E9, 0.0, 2022-07-10 18:31:49.700
179.0, 22973.92761396499, 9398.528563800879, -28363.60375447318, -50175.66533990685, -29.101971280809796, 4707.813824154595, -24438.145689743244, -3928.855529887144, 0.032, 0.882, 0.404, 192.0, 0.0, 0.0, 0.0, 0.0, 0.0, 0.0, 0.0, 0.0, 0.0, 1.657492309700929E9, 0.0, 2022-07-10 18:31:49.700
180.0, 26502.01636576848, 9305.858231289176, -28745.639770703292, -49848.167580147696, -659.6893858539327, 10839.590232323437, -25023.157897371995, -2975.7100910794848, 0.032, 0.882, 0.404, 192.0, 0.0, 0.0, 0.0, 0.0, 0.0, 0.0, 0.0, 0.0, 0.0, 1.657492309707186E9, 0.0, 2022-07-10 18:31:49.707
181.0, 27404.669213851597, 9081.446716957893, -29057.80423376611, -50781.799946045874, -762.1050789481496, 12754.173607131674, -25136.63770397159, -3728.852120501056, 0.032, 0.882, 0.404, 192.0, 0.0, 0.0, 0.0, 0.0, 0.0, 0.0, 0.0, 0.0, 0.0, 1.657492309707215E9, 0.0, 2022-07-10 18:31:49.707
182.0, 24123.522534790343, 9154.961604471398, -28723.01980531452, -51181.62795086241, -164.93352233571082, 7082.954893464434, -24582.269737991064, -4728.600946498031, 0.032, 0.882, 0.404, 192.0, 0.0, 0.0, 0.0, 0.0, 0.0, 0.0, 0.0, 0.0, 0.0, 1.657492309713384E9, 0.0, 2022-07-10 18:31:49.713
183.0, 22673.944851630313, 9390.504287541424, -28369.549318498295, -50358.077926406615, 30.554834670404755, 4237.510769070479, -24375.806674457395, -4173.070689805829, 0.032, 0.882, 0.404, 192.0, 0.0, 0.0, 0.0, 0.0, 0.0, 0.0, 0.0, 0.0, 0.0, 1.657492309719516E9, 0.0, 2022-07-10 18:31:49.719
184.0, 25876.525148931167, 9364.397450017626, -28663.430054596673, -49792.06470156488, -561.6993381618665, 9708.569611140443, -24935.628466085014, -3044.5981674907407, 0.032, 0.882, 0.404, 192.0, 0.0, 0.0, 0.0, 0.0, 0.0, 0.0, 0.0, 0.0, 0.0, 1.657492309719547E9, 0.0, 2022-07-10 18:31:49.719
185.0, 27653.600591850354, 9116.158976096985, -29050.27169588467, -50602.695417725496, -811.1001027941827, 13115.914239396363, -25194.662832577567, -3506.3852079373846, 0.032, 0.882, 0.404, 192.0, 0.0, 0.0, 0.0, 0.0, 0.0, 0.0, 0.0, 0.0, 0.0, 1.657492309725818E9, 0.0, 2022-07-10 18:31:49.725
186.0, 24770.739647238213, 9130.821720459668, -28800.133323685328, -51203.33149472851, -260.82250604897814, 8214.266087325346, -24683.41138165133, -4641.049163466592, 0.032, 0.882, 0.404, 192.0, 0.0, 0.0, 0.0, 0.0, 0.0, 0.0, 0.0, 0.0, 0.0, 1.657492309725909E9, 0.0, 2022-07-10 18:31:49.725
187.0, 22549.13271059188, 9386.033938650364, -28369.28109756483, -50523.50318712035, 95.39724533525055, 4062.89894138562, -24325.135269777213, -4362.546427553467, 0.034, 0.886, 0.406, 192.0, 1.0, 16.0, 27.0, 176.0, 12.0, 176.0, 0.0, 0.0, 0.0, 1.657492309731926E9, 0.0, 2022-07-10 18:31:49.731
188.0, 25187.577329585234, 9421.506157100936, -28543.289428149397, -49754.15614296868, -411.5179671666583, 8480.564770765874, -24786.76584801267, -3132.2840609889104, 0.034, 0.886, 0.406, 192.0, 0.0, 0.0, 0.0, 0.0, 0.0, 0.0, 0.0, 0.0, 0.0, 1.657492309731949E9, 0.0, 2022-07-10 18:31:49.731
189.0, 27728.948322409193, 9178.788564060756, -29010.373832031946, -50392.29844716769, -829.6744024365429, 13187.261007697703, -25212.007786274888, -3305.621839239817, 0.034, 0.886, 0.406, 192.0, 0.0, 0.0, 0.0, 0.0, 0.0, 0.0, 0.0, 0.0, 0.0, 1.657492309738158E9, 0.0, 2022-07-10 18:31:49.738
190.0, 25437.156908173194, 9118.349447053606, -28883.125350847884, -51179.45983165024, -385.94757150978705, 9392.314778842305, -24807.70943256729, -4529.022220256594, 0.034, 0.886, 0.406, 192.0, 0.0, 0.0, 0.0, 0.0, 0.0, 0.0, 0.0, 0.0, 0.0, 1.657492309738179E9, 0.0, 2022-07-10 18:31:49.738
191.0, 22598.150086182366, 9342.760961384889, -28422.791173790836, -50704.01587534141, 79.70632072762498, 4204.385483787713, -24351.15270032319, -4559.465296204722, 0.034, 0.886, 0.406, 192.0, 0.0, 0.0, 0.0, 0.0, 0.0, 0.0, 0.0, 0.0, 0.0, 1.657492309744529E9, 0.0, 2022-07-10 18:31:49.744
192.0, 24493.46625727013, 9445.19900622356, -28473.551985448838, -49807.77797791696, -308.69994267224587, 7248.24604371143, -24724.136260048897, -3343.7986187694814, 0.034, 0.886, 0.406, 192.0, 0.0, 0.0, 0.0, 0.0, 0.0, 0.0, 0.0, 0.0, 0.0, 1.657492309744553E9, 0.0, 2022-07-10 18:31:49.744
193.0, 27626.264408381514, 9229.057637340742, -28956.506127894656, -50208.16477634487, -833.2283298049367, 12902.097451936896, -25242.204993034007, -3191.0467971619128, 0.034, 0.886, 0.406, 192.0, 0.0, 0.0, 0.0, 0.0, 0.0, 0.0, 0.0, 0.0, 0.0, 1.657492309753473E9, 0.0, 2022-07-10 18:31:49.753
194.0, 26092.957090491902, 9133.839205961134, -28942.133956209895, -51114.34920005193, -499.00269496473015, 10480.464754160019, -24930.532268349205, -4394.330608168913, 0.034, 0.886, 0.406, 192.0, 0.0, 0.0, 0.0, 0.0, 0.0, 0.0, 0.0, 0.0, 0.0, 1.657492309753492E9, 0.0, 2022-07-10 18:31:49.753
195.0, 22844.13103391302, 9324.052551275796, -28479.16227330712, -50856.56653124888, 46.961015100600136, 4646.458285624777, -24396.370279356277, -4688.479565200754, 0.034, 0.886, 0.406, 192.0, 0.0, 0.0, 0.0, 0.0, 0.0, 0.0, 0.0, 0.0, 0.0, 1.657492309759873E9, 0.0, 2022-07-10 18:31:49.759
196.0, 23869.15968288895, 9457.268948229426, -28403.9039497261, -49890.01004576803, -191.37563602633907, 6142.5499489962995, -24581.487426935128, -3514.1636150078316, 0.034, 0.886, 0.406, 192.0, 0.0, 0.0, 0.0, 0.0, 0.0, 0.0, 0.0, 0.0, 0.0, 1.657492309759925E9, 0.0, 2022-07-10 18:31:49.759
197.0, 27365.151329654615, 9259.299547588773, -28889.137970106363, -50039.90084408532, -804.4839864354118, 12373.679861268982, -25167.661925275555, -3030.047181850336, 0.042, 0.896, 0.406, 192.0, 1.0, 80.0, 28.0, 0.0, 12.0, 176.0, 0.0, 0.0, 0.0, 1.657492309766175E9, 0.0, 2022-07-10 18:31:49.766
198.0, 26685.12185634635, 9100.915086378465, -29003.93652962882, -51019.46604483915, -623.3230976251481, 11505.001664757929, -25018.24051359183, -4144.594567369767, 0.042, 0.896, 0.406, 192.0, 0.0, 0.0, 0.0, 0.0, 0.0, 0.0, 0.0, 0.0, 0.0, 1.657492309772433E9, 0.0, 2022-07-10 18:31:49.772
199.0, 23213.94064592608, 9275.593969296691, -28556.164032955654, -51002.657533008765, -13.902785051200993, 5353.287500534952, -24442.861907823313, -4768.543513839664, 0.042, 0.896, 0.406, 192.0, 0.0, 0.0, 0.0, 0.0, 0.0, 0.0, 0.0, 0.0, 0.0, 1.657492309772458E9, 0.0, 2022-07-10 18:31:49.772
200.0, 23292.395268964206, 9465.15911402215, -28361.36858002765, -50029.21671023568, -89.04934990994333, 5181.1790682290875, -24486.201940322157, -3780.4399467039048, 0.042, 0.896, 0.406, 192.0, 0.0, 0.0, 0.0, 0.0, 0.0, 0.0, 0.0, 0.0, 0.0, 1.65749230978846E9, 0.0, 2022-07-10 18:31:49.788
201.0, 26900.816190340065, 9327.785292599832, -28792.60078580389, -49896.402644682246, -727.9739651648957, 11516.691627108054, -25102.73010763289, -2988.6517511191073, 0.042, 0.896, 0.406, 192.0, 0.0, 0.0, 0.0, 0.0, 0.0, 0.0, 0.0, 0.0, 0.0, 1.657492309788648E9, 0.0, 2022-07-10 18:31:49.788
202.0, 27161.37047545558, 9120.696380221412, -29027.964654918273, -50868.770583721474, -710.6290114675775, 12300.76847085577, -25095.86812208511, -3905.1179772756077, 0.042, 0.896, 0.406, 192.0, 0.0, 0.0, 0.0, 0.0, 0.0, 0.0, 0.0, 0.0, 0.0, 1.657492309801502E9, 0.0, 2022-07-10 18:31:49.801
203.0, 23725.12504161895, 9238.53477698979, -28638.44080429564, -51098.36770276639, -99.39820759275051, 6296.084081659804, -24514.99098718059, -4761.502714336242, 0.042, 0.896, 0.406, 192.0, 0.0, 0.0, 0.0, 0.0, 0.0, 0.0, 0.0, 0.0, 0.0, 1.657492309807518E9, 0.0, 2022-07-10 18:31:49.807
204.0, 22889.32626120165, 9463.236863998993, -28346.75053915388, -50201.83923266402, -18.41783743117302, 4511.789025281551, -24433.183602474168, -4026.7114671124777, 0.042, 0.896, 0.406, 192.0, 0.0, 0.0, 0.0, 0.0, 0.0, 0.0, 0.0, 0.0, 0.0, 1.657492309807537E9, 0.0, 2022-07-10 18:31:49.807
205.0, 26338.35689286672, 9372.444078021535, -28692.397915410747, -49805.743969171526, -623.7030772808882, 10475.994405268957, -24995.08410633613, -3006.68960889454, 0.042, 0.896, 0.406, 192.0, 0.0, 0.0, 0.0, 0.0, 0.0, 0.0, 0.0, 0.0, 0.0, 1.657492309813936E9, 0.0, 2022-07-10 18:31:49.813
206.0, 27507.844866257296, 9119.802310443201, -29039.967541690774, -50716.935183636575, -775.1361459655936, 12847.045105343475, -25158.11773039314, -3695.8832974294783, 0.042, 0.896, 0.406, 192.0, 0.0, 0.0, 0.0, 0.0, 0.0, 0.0, 0.0, 0.0, 0.0, 1.657492309813981E9, 0.0, 2022-07-10 18:31:49.813
207.0, 24314.1382115052, 9169.981976745365, -28739.761261911546, -51189.27224746612, -198.0588076184759, 7355.489713607993, -24621.07236636548, -4751.779705498184, 0.046, 0.886, 0.41200000000000003, 192.0, 1.0, 112.0, 27.0, 176.0, 12.0, 224.0, 0.0, 0.0, 0.0, 1.657492309820059E9, 0.0, 2022-07-10 18:31:49.820
208.0, 22614.556266612562, 9409.547973817345, -28356.138271825108, -50400.233316449325, 56.30404428291849, 4079.3945287936367, -24347.397607254698, -4267.08212698485, 0.046, 0.886, 0.41200000000000003, 192.0, 0.0, 0.0, 0.0, 0.0, 0.0, 0.0, 0.0, 0.0, 0.0, 1.65749230982008E9, 0.0, 2022-07-10 18:31:49.820
209.0, 25674.867710455386, 9397.388624833658, -28616.647853451712, -49773.57980890034, -518.1581399629283, 9282.701824033478, -24876.865729912013, -3076.047071939358, 0.046, 0.886, 0.41200000000000003, 192.0, 0.0, 0.0, 0.0, 0.0, 0.0, 0.0, 0.0, 0.0, 0.0, 1.657492309826356E9, 0.0, 2022-07-10 18:31:49.826
210.0, 27690.05628705696, 9156.123895183075, -29025.863590939476, -50535.3272599372, -816.1068935521715, 13113.902582395385, -25189.298413908295, -3465.7497365176364, 0.046, 0.886, 0.41200000000000003, 192.0, 0.0, 0.0, 0.0, 0.0, 0.0, 0.0, 0.0, 0.0, 0.0, 1.657492309826391E9, 0.0, 2022-07-10 18:31:49.826
211.0, 24967.636164145013, 9142.489331065337, -28816.070117481962, -51190.769814344625, -301.39092223536045, 8519.389750884742, -24707.394803451873, -4615.612878276454, 0.046, 0.886, 0.41200000000000003, 192.0, 0.0, 0.0, 0.0, 0.0, 0.0, 0.0, 0.0, 0.0, 0.0, 1.657492309832501E9, 0.0, 2022-07-10 18:31:49.832
212.0, 22556.955821151238, 9386.816249706299, -28381.060466892777, -50573.07935632222, 79.99689340554397, 4029.79600784731, -24330.320874490844, -4423.276117238536, 0.046, 0.886, 0.41200000000000003, 192.0, 0.0, 0.0, 0.0, 0.0, 0.0, 0.0, 0.0, 0.0, 0.0, 1.65749230983252E9, 0.0, 2022-07-10 18:31:49.832
213.0, 24987.775085899244, 9429.48572987148, -28527.285579119394, -49771.90342806619, -400.81148157256627, 8077.629873470053, -24772.19251062781, -3195.9194774531697, 0.046, 0.886, 0.41200000000000003, 192.0, 0.0, 0.0, 0.0, 0.0, 0.0, 0.0, 0.0, 0.0, 0.0, 1.657492309839232E9, 0.0, 2022-07-10 18:31:49.839
214.0, 27704.517865719543, 9191.39494793355, -28991.240738778204, -50341.224711087314, -835.4858559949226, 13089.986215828207, -25189.16430344156, -3261.9241788296913, 0.046, 0.886, 0.41200000000000003, 192.0, 0.0, 0.0, 0.0, 0.0, 0.0, 0.0, 0.0, 0.0, 0.0, 1.657492309839264E9, 0.0, 2022-07-10 18:31:49.839
215.0, 25623.235180763626, 9129.413560558982, -28893.00482189713, -51154.001194715645, -418.6928771368119, 9676.830134013908, -24813.766755314682, -4466.146763103815, 0.046, 0.886, 0.41200000000000003, 192.0, 0.0, 0.0, 0.0, 0.0, 0.0, 0.0, 0.0, 0.0, 0.0, 1.657492309844924E9, 0.0, 2022-07-10 18:31:49.844
216.0, 22654.81175837657, 9344.32558349676, -28444.58412463476, -50754.73198351049, 56.795782660935245, 4278.481516657057, -24355.131310836234, -4605.733407227208, 0.046, 0.88, 0.41000000000000003, 192.0, 1.0, 112.0, 27.0, 128.0, 12.0, 208.0, 0.0, 0.0, 0.0, 1.657492309844949E9, 0.0, 2022-07-10 18:31:49.844
217.0, 24293.641661839683, 9449.11056150324, -28458.53161317487, -49838.511626543004, -288.71748312920136, 6880.984530566279, -24659.383256361874, -3411.613811446883, 0.046, 0.88, 0.41000000000000003, 192.0, 0.0, 0.0, 0.0, 0.0, 0.0, 0.0, 0.0, 0.0, 0.0, 1.657492309851019E9, 0.0, 2022-07-10 18:31:49.851
218.0, 27534.912828792672, 9239.920585146021, -28941.731624809698, -50161.44963043328, -832.8707018936518, 12733.364133043782, -25195.579254100234, -3140.0177645704466, 0.046, 0.88, 0.41000000000000003, 192.0, 0.0, 0.0, 0.0, 0.0, 0.0, 0.0, 0.0, 0.0, 0.0, 1.657492309857354E9, 0.0, 2022-07-10 18:31:49.857
219.0, 26254.649609881595, 9113.923801651456, -28973.269936236138, -51089.561115451, -552.8703991020202, 10782.146249073297, -24955.476815161328, -4301.012075068006, 0.046, 0.88, 0.41000000000000003, 192.0, 0.0, 0.0, 0.0, 0.0, 0.0, 0.0, 0.0, 0.0, 0.0, 1.657492309857397E9, 0.0, 2022-07-10 18:31:49.857
220.0, 22930.475822743872, 9314.12837673764, -28508.10778237674, -50902.34290389335, 26.889148579734396, 4832.134226815013, -24382.78041872745, -4714.1170160909915, 0.046, 0.88, 0.41000000000000003, 192.0, 0.0, 0.0, 0.0, 0.0, 0.0, 0.0, 0.0, 0.0, 0.0, 1.657492309863494E9, 0.0, 2022-07-10 18:31:49.863
221.0, 23674.16306426085, 9475.664433916145, -28397.600757789703, -49933.528892222515, -158.8985513327779, 5833.827654579599, -24538.169746180745, -3618.568613358571, 0.046, 0.88, 0.41000000000000003, 192.0, 0.0, 0.0, 0.0, 0.0, 0.0, 0.0, 0.0, 0.0, 0.0, 1.657492309863515E9, 0.0, 2022-07-10 18:31:49.863
222.0, 27206.230426577382, 9292.93892299401, -28863.52287096058, -49996.62786681984, -774.4655936319344, 12118.646457033929, -25138.15762259455, -3035.3892487751546, 0.046, 0.88, 0.41000000000000003, 192.0, 0.0, 0.0, 0.0, 0.0, 0.0, 0.0, 0.0, 0.0, 0.0, 1.657492309869771E9, 0.0, 2022-07-10 18:31:49.869
223.0, 26804.21195080423, 9124.719694223368, -29010.530294243134, -50967.475887236105, -634.6554320639888, 11737.213937904113, -25033.596162032627, -4078.90279041562, 0.046, 0.88, 0.41000000000000003, 192.0, 0.0, 0.0, 0.0, 0.0, 0.0, 0.0, 0.0, 0.0, 0.0, 1.657492309869821E9, 0.0, 2022-07-10 18:31:49.869
224.0, 23347.1123393908, 9275.102230918674, -28582.829664090834, -51022.215309407155, -27.24677649101931, 5619.697942697757, -24448.874527081793, -4751.042097931158, 0.046, 0.88, 0.41000000000000003, 192.0, 0.0, 0.0, 0.0, 0.0, 0.0, 0.0, 0.0, 0.0, 0.0, 1.657492309877305E9, 0.0, 2022-07-10 18:31:49.877
225.0, 23159.469444688493, 9476.06676531634, -28364.0954928512, -50073.9201991463, -64.28361705346312, 4966.423507502497, -24469.013448836024, -3854.558331317703, 0.046, 0.88, 0.41000000000000003, 192.0, 0.0, 0.0, 0.0, 0.0, 0.0, 0.0, 0.0, 0.0, 0.0, 1.657492309877328E9, 0.0, 2022-07-10 18:31:49.877
226.0, 26737.53669709405, 9352.014583589385, -28776.954564685177, -49868.39590887975, -710.3160870452032, 11237.36187665008, -25063.256926924816, -3000.6769896360624, 0.048, 0.884, 0.40800000000000003, 192.0, 1.0, 128.0, 27.0, 160.0, 12.0, 192.0, 0.0, 0.0, 0.0, 1.657492309883741E9, 0.0, 2022-07-10 18:31:49.883
227.0, 27256.566555090732, 9121.702208721901, -29036.279503855647, -50821.89897559869, -736.1770553799934, 12481.28115907683, -25096.49397092986, -3852.591377805636, 0.048, 0.884, 0.40800000000000003, 192.0, 0.0, 0.0, 0.0, 0.0, 0.0, 0.0, 0.0, 0.0, 0.0, 1.657492309883772E9, 0.0, 2022-07-10 18:31:49.883
228.0, 23883.084819684605, 9222.173300048507, -28675.23177566907, -51114.282144818564, -133.35050742036194, 6597.45265215071, -24545.09878696189, -4781.172249456912, 0.048, 0.884, 0.40800000000000003, 192.0, 0.0, 0.0, 0.0, 0.0, 0.0, 0.0, 0.0, 0.0, 0.0, 1.657492309889926E9, 0.0, 2022-07-10 18:31:49.889
229.0, 22792.476152476807, 9452.44097142708, -28357.47937649243, -50250.767201276685, 3.3304099238407523, 4359.86421821883, -24415.659834821206, -4128.277793917393, 0.048, 0.884, 0.40800000000000003, 192.0, 0.0, 0.0, 0.0, 0.0, 0.0, 0.0, 0.0, 0.0, 0.0, 1.657492309889945E9, 0.0, 2022-07-10 18:31:49.889
230.0, 26132.07264328869, 9394.460546310014, -28676.43876986966, -49785.69445439511, -595.584582756112, 10127.374246999532, -24959.18720474091, -3042.5418070008527, 0.048, 0.884, 0.40800000000000003, 192.0, 0.0, 0.0, 0.0, 0.0, 0.0, 0.0, 0.0, 0.0, 0.0, 1.657492309900055E9, 0.0, 2022-07-10 18:31:49.900
231.0, 27566.294678007926, 9149.15015091302, -29045.46607082678, -50652.76332530539, -801.6676666340431, 12970.672603925777, -25173.36162011166, -3631.7561425872022, 0.048, 0.884, 0.40800000000000003, 192.0, 0.0, 0.0, 0.0, 0.0, 0.0, 0.0, 0.0, 0.0, 0.0, 1.657492309900094E9, 0.0, 2022-07-10 18:31:49.900
232.0, 24500.283539328997, 9191.327892700183, -28761.196584844183, -51171.70377632425, -231.9217004682661, 7714.883412704875, -24651.35898010242, -4714.809920169106, 0.048, 0.884, 0.40800000000000003, 192.0, 0.0, 0.0, 0.0, 0.0, 0.0, 0.0, 0.0, 0.0, 0.0, 1.657492309907075E9, 0.0, 2022-07-10 18:31:49.907
233.0, 22575.060734160037, 9434.023133995906, -28354.819518902248, -50421.57923240415, 67.45756476611672, 4060.395546006626, -24326.76694712245, -4297.391092466247, 0.048, 0.884, 0.40800000000000003, 192.0, 0.0, 0.0, 0.0, 0.0, 0.0, 0.0, 0.0, 0.0, 0.0, 1.657492309913359E9, 0.0, 2022-07-10 18:31:49.913
234.0, 25460.5591846179, 9432.100883972751, -28583.23199549103, -49746.377735898226, -482.685921512356, 8955.405229974416, -24827.9601130438, -3104.076159486313, 0.048, 0.884, 0.40800000000000003, 192.0, 0.0, 0.0, 0.0, 0.0, 0.0, 0.0, 0.0, 0.0, 0.0, 1.657492309913386E9, 0.0, 2022-07-10 18:31:49.913
235.0, 27707.512999476552, 9193.853639823632, -29013.92775940034, -50466.19331433694, -828.668573936054, 13164.529283586657, -25193.835818032723, -3413.357247514397, 0.048, 0.884, 0.40800000000000003, 192.0, 0.0, 0.0, 0.0, 0.0, 0.0, 0.0, 0.0, 0.0, 0.0, 1.657492309919457E9, 0.0, 2022-07-10 18:31:49.919
236.0, 25166.343172352696, 9167.76915404429, -28830.330530444448, -51168.35101465596, -343.59101576698015, 8899.034130458132, -24749.974876639233, -4584.789822672585, 0.044, 0.89, 0.41600000000000004, 192.0, 1.0, 96.0, 27.0, 208.0, 13.0, 0.0, 0.0, 0.0, 0.0, 1.657492309919479E9, 0.0, 2022-07-10 18:31:49.919
237.0, 22562.879033431895, 9407.960999961018, -28382.848606449203, -50605.60114450469, 78.09699512684287, 4093.8784592006755, -24321.782508108918, -4476.74148997563, 0.044, 0.89, 0.41600000000000004, 192.0, 0.0, 0.0, 0.0, 0.0, 0.0, 0.0, 0.0, 0.0, 0.0, 1.65749230992688E9, 0.0, 2022-07-10 18:31:49.926
238.0, 24771.231385616233, 9482.325253763825, -28484.01260185392, -49761.91219829467, -346.9214256908209, 7726.19339539926, -24705.74077436218, -3252.715260114105, 0.044, 0.89, 0.41600000000000004, 192.0, 0.0, 0.0, 0.0, 0.0, 0.0, 0.0, 0.0, 0.0, 0.0, 1.657492309926903E9, 0.0, 2022-07-10 18:31:49.926
239.0, 27680.42268519672, 9238.467721756426, -28964.105721009462, -50266.05579448412, -830.2331960479255, 13042.935793749786, -25181.16237892656, -3225.759056301005, 0.044, 0.89, 0.41600000000000004, 192.0, 0.0, 0.0, 0.0, 0.0, 0.0, 0.0, 0.0, 0.0, 0.0, 1.657492309934733E9, 0.0, 2022-07-10 18:31:49.934
240.0, 25833.006302476682, 9147.00438344531, -28906.080592403483, -51120.74179896615, -454.5003717542138, 10061.883635745482, -24850.49067145475, -4416.771759602041, 0.044, 0.89, 0.41600000000000004, 192.0, 0.0, 0.0, 0.0, 0.0, 0.0, 0.0, 0.0, 0.0, 0.0, 1.657492309934763E9, 0.0, 2022-07-10 18:31:49.934
241.0, 22718.06719518509, 9362.765772672388, -28443.82416532328, -50779.073033222325, 59.299178039929636, 4430.518082442055, -24353.991371869015, -4649.58752984852, 0.044, 0.89, 0.41600000000000004, 192.0, 0.0, 0.0, 0.0, 0.0, 0.0, 0.0, 0.0, 0.0, 0.0, 1.657492309944585E9, 0.0, 2022-07-10 18:31:49.944
242.0, 24094.688784443, 9478.145477550683, -28418.38788013314, -49836.05293465292, -238.247244149118, 6561.935730211227, -24619.105412853412, -3461.346442859941, 0.044, 0.89, 0.41600000000000004, 192.0, 0.0, 0.0, 0.0, 0.0, 0.0, 0.0, 0.0, 0.0, 0.0, 1.657492309944625E9, 0.0, 2022-07-10 18:31:49.944
243.0, 27474.71958097453, 9276.17511465253, -28901.34202257896, -50085.788975452066, -813.1117597951603, 12626.16516663613, -25175.149759668086, -3085.2559906549445, 0.044, 0.89, 0.41600000000000004, 192.0, 0.0, 0.0, 0.0, 0.0, 0.0, 0.0, 0.0, 0.0, 0.0, 1.657492309950892E9, 0.0, 2022-07-10 18:31:49.950
244.0, 26448.640400009204, 9144.880967722054, -28971.21357574625, -51042.01895499456, -574.9315708794082, 11128.330067197094, -24974.31933573715, -4230.872300967253, 0.044, 0.89, 0.41600000000000004, 192.0, 0.0, 0.0, 0.0, 0.0, 0.0, 0.0, 0.0, 0.0, 0.0, 1.657492309950919E9, 0.0, 2022-07-10 18:31:49.950
245.0, 23029.471698936428, 9327.159443755085, -28510.141791122176, -50925.23109021558, 23.53638691143834, 5042.352383417176, -24399.946558469124, -4754.640728788463, 0.044, 0.89, 0.41600000000000004, 192.0, 0.0, 0.0, 0.0, 0.0, 0.0, 0.0, 0.0, 0.0, 0.0, 1.657492309959169E9, 0.0, 2022-07-10 18:31:49.959
246.0, 23487.347184103393, 9491.802393412876, -28359.871013149146, -49945.196502828185, -113.47980659959396, 5544.081991205453, -24492.75100144756, -3688.864849670512, 0.044, 0.894, 0.41000000000000003, 192.0, 1.0, 96.0, 27.0, 240.0, 12.0, 208.0, 0.0, 0.0, 0.0, 1.657492309959194E9, 0.0, 2022-07-10 18:31:49.959
247.0, 27095.254015356782, 9310.686208091523, -28824.04969025251, -49934.288851533995, -753.9019887330519, 11918.151309269824, -25101.366651221117, -3003.5380129263417, 0.044, 0.894, 0.41000000000000003, 192.0, 0.0, 0.0, 0.0, 0.0, 0.0, 0.0, 0.0, 0.0, 0.0, 1.657492309965871E9, 0.0, 2022-07-10 18:31:49.965
248.0, 26977.90735696642, 9124.451473289904, -29012.139619843918, -50920.850148302336, -669.2335807363488, 12038.738970606206, -25051.25404015232, -4010.551155871291, 0.044, 0.894, 0.41000000000000003, 192.0, 0.0, 0.0, 0.0, 0.0, 0.0, 0.0, 0.0, 0.0, 0.0, 1.657492309973236E9, 0.0, 2022-07-10 18:31:49.973
249.0, 23486.27430036954, 9258.964271421943, -28602.678013167148, -51052.300757444, -52.81717214789059, 5914.785672996721, -24469.59459419186, -4790.4258716614095, 0.044, 0.894, 0.41000000000000003, 192.0, 0.0, 0.0, 0.0, 0.0, 0.0, 0.0, 0.0, 0.0, 0.0, 1.657492309973278E9, 0.0, 2022-07-10 18:31:49.973
250.0, 22998.291015421273, 9478.771326395432, -28340.693216406493, -50114.645077543864, -23.581090400348952, 4752.964347954315, -24422.901800024727, -3947.5639399962356, 0.044, 0.894, 0.41000000000000003, 192.0, 0.0, 0.0, 0.0, 0.0, 0.0, 0.0, 0.0, 0.0, 0.0, 1.657492309979367E9, 0.0, 2022-07-10 18:31:49.979
251.0, 26572.49141603606, 9393.789993976354, -28729.92649435121, -49821.390190290236, -664.9867492898404, 10955.841655235488, -25037.61947603458, -2997.9724285569705, 0.044, 0.894, 0.41000000000000003, 192.0, 0.0, 0.0, 0.0, 0.0, 0.0, 0.0, 0.0, 0.0, 0.0, 1.657492309979388E9, 0.0, 2022-07-10 18:31:49.979
252.0, 27389.89471076664, 9147.76434275679, -29029.484573541235, -50760.29756787987, -746.8835409740855, 12715.527440968448, -25128.009930611843, -3774.6284931455248, 0.044, 0.894, 0.41000000000000003, 192.0, 0.0, 0.0, 0.0, 0.0, 0.0, 0.0, 0.0, 0.0, 0.0, 1.657492309990375E9, 0.0, 2022-07-10 18:31:49.990
253.0, 24044.95615302994, 9206.616485907613, -28686.63116534128, -51133.437589816764, -144.66049011474732, 6933.0417434026895, -24557.90633653478, -4759.267539890711, 0.044, 0.894, 0.41000000000000003, 192.0, 0.0, 0.0, 0.0, 0.0, 0.0, 0.0, 0.0, 0.0, 0.0, 1.657492309990421E9, 0.0, 2022-07-10 18:31:49.990
254.0, 22669.4521509948, 9438.940517776075, -28340.290885006296, -50293.481384930776, 37.9756138295667, 4213.996733903496, -24365.77074119696, -4191.153251070172, 0.044, 0.894, 0.41000000000000003, 192.0, 0.0, 0.0, 0.0, 0.0, 0.0, 0.0, 0.0, 0.0, 0.0, 1.657492309996092E9, 0.0, 2022-07-10 18:31:49.996
255.0, 25949.682408533386, 9401.836621980265, -28643.24642935353, -49763.52152389545, -554.4350212138917, 9813.153423446825, -24899.55275053415, -3065.497048556453, 0.044, 0.894, 0.41000000000000003, 192.0, 0.0, 0.0, 0.0, 0.0, 0.0, 0.0, 0.0, 0.0, 0.0, 1.657492309996111E9, 0.0, 2022-07-10 18:31:49.996
0.0, 27663.32360068841, 9156.14624692753, -29031.809154964587, -50594.67114146604, -801.3994457005795, 13105.699492180287, -25156.64251525909, -3560.118801607943, 0.038, 0.898, 0.402, 192.0, 1.0, 48.0, 28.0, 16.0, 12.0, 144.0, 0.0, 0.0, 0.0, 1.657492310002713E9, 0.0, 2022-07-10 18:31:50.002
1.0, 24702.924454560813, 9169.937273256453, -28780.374381586837, -51181.56089562904, -256.1286397133636, 8081.496725260821, -24657.416302849808, -4693.799280381118, 0.038, 0.898, 0.402, 192.0, 0.0, 0.0, 0.0, 0.0, 0.0, 0.0, 0.0, 0.0, 0.0, 1.657492310002775E9, 0.0, 2022-07-10 18:31:50.002
2.0, 22526.80331788103, 9416.05233145384, -28359.312219537762, -50493.06011117221, 80.04159689445459, 4013.0098477613747, -24321.536638919908, -4399.180936715715, 0.038, 0.898, 0.402, 192.0, 0.0, 0.0, 0.0, 0.0, 0.0, 0.0, 0.0, 0.0, 0.0, 1.657492310009676E9, 0.0, 2022-07-10 18:31:50.009
3.0, 25262.254507810416, 9445.780151579398, -28549.905544508165, -49749.596387099795, -447.6383862064345, 8591.898809897759, -24808.469391878774, -3172.114869608268, 0.038, 0.898, 0.402, 192.0, 0.0, 0.0, 0.0, 0.0, 0.0, 0.0, 0.0, 0.0, 0.0, 1.657492310009694E9, 0.0, 2022-07-10 18:31:50.009
4.0, 27755.25632563309, 9195.15004100204, -29013.279558811137, -50414.650191623, -844.314795054769, 13208.56222016361, -25209.258521706884, -3376.6556831187827, 0.038, 0.898, 0.402, 192.0, 0.0, 0.0, 0.0, 0.0, 0.0, 0.0, 0.0, 0.0, 0.0, 1.657492310017854E9, 0.0, 2022-07-10 18:31:50.017
5.0, 25368.984087584508, 9143.517511310281, -28874.519929232592, -51186.47827940921, -380.3596353959603, 9255.566806264736, -24792.644356804416, -4587.896715151873, 0.038, 0.898, 0.402, 192.0, 0.0, 0.0, 0.0, 0.0, 0.0, 0.0, 0.0, 0.0, 0.0, 1.657492310017872E9, 0.0, 2022-07-10 18:31:50.017
6.0, 22554.474777516698, 9382.815287448799, -28415.99624347642, -50682.02175879738, 73.55959100241554, 4119.448854857547, -24346.68235143213, -4602.715921725741, 0.038, 0.898, 0.402, 192.0, 0.0, 0.0, 0.0, 0.0, 0.0, 0.0, 0.0, 0.0, 0.0, 1.657492310025034E9, 0.0, 2022-07-10 18:31:50.025
7.0, 24543.75768229457, 9474.770364137932, -28472.054418570333, -49789.784823630434, -315.5842799644804, 7334.076742419808, -24689.60281486545, -3367.424412658741, 0.038, 0.898, 0.402, 192.0, 0.0, 0.0, 0.0, 0.0, 0.0, 0.0, 0.0, 0.0, 0.0, 1.657492310025054E9, 0.0, 2022-07-10 18:31:50.025
8.0, 27656.908650029738, 9250.492960273381, -28956.34966568347, -50216.859604937985, -829.7861611588194, 12962.469513710681, -25194.46166687747, -3202.937925212136, 0.038, 0.898, 0.402, 192.0, 0.0, 0.0, 0.0, 0.0, 0.0, 0.0, 0.0, 0.0, 0.0, 1.657492310032812E9, 0.0, 2022-07-10 18:31:50.032
9.0, 26023.91255186946, 9152.324098625671, -28929.572275826013, -51117.63490648686, -486.26220062520514, 10381.848857623203, -24893.495427786762, -4407.518137397545, 0.038, 0.898, 0.402, 192.0, 0.0, 0.0, 0.0, 0.0, 0.0, 0.0, 0.0, 0.0, 0.0, 1.657492310041052E9, 0.0, 2022-07-10 18:31:50.041
10.0, 22759.283811960675, 9351.23227253345, -28461.124415531685, -50842.73080143104, 56.95224487212239, 4535.347763937445, -24358.886403904726, -4726.276365074678, 0.032, 0.898, 0.404, 192.0, 1.0, 0.0, 28.0, 16.0, 12.0, 160.0, 0.0, 0.0, 0.0, 1.657492310041094E9, 0.0, 2022-07-10 18:31:50.041
11.0, 23886.48228484181, 9482.861695630752, -28397.488999067427, -49875.9731502501, -199.0422843745094, 6201.692664825042, -24576.033601288036, -3562.577493498027, 0.032, 0.898, 0.404, 192.0, 0.0, 0.0, 0.0, 0.0, 0.0, 0.0, 0.0, 0.0, 0.0, 1.65749231004801E9, 0.0, 2022-07-10 18:31:50.048
12.0, 27397.18137945907, 9300.069129475252, -28885.96402239371, -50053.02131808059, -799.8348235887079, 12444.64664991458, -25163.12452115113, -3095.247220426467, 0.032, 0.898, 0.404, 192.0, 0.0, 0.0, 0.0, 0.0, 0.0, 0.0, 0.0, 0.0, 0.0, 1.65749231004803E9, 0.0, 2022-07-10 18:31:50.048
13.0, 26628.862515552344, 9136.90139495151, -28991.26309052266, -51030.84308276691, -606.7157514948549, 11418.835689882719, -25006.28233030824, -4206.821823933342, 0.032, 0.898, 0.404, 192.0, 0.0, 0.0, 0.0, 0.0, 0.0, 0.0, 0.0, 0.0, 0.0, 1.657492310058162E9, 0.0, 2022-07-10 18:31:50.058
14.0, 23145.8125288263, 9301.186716698017, -28545.79282352839, -50996.063768394444, -2.838671545823997, 5257.867903455246, -24422.45476513562, -4795.656179863951, 0.032, 0.898, 0.404, 192.0, 0.0, 0.0, 0.0, 0.0, 0.0, 0.0, 0.0, 0.0, 0.0, 1.657492310058212E9, 0.0, 2022-07-10 18:31:50.058
15.0, 23316.42339425366, 9487.421451499637, -28363.313181795264, -50019.87368105337, -95.01726567951032, 5244.479208526517, -24493.957995648147, -3808.6031447175915, 0.032, 0.898, 0.404, 192.0, 0.0, 0.0, 0.0, 0.0, 0.0, 0.0, 0.0, 0.0, 0.0, 1.657492310064601E9, 0.0, 2022-07-10 18:31:50.064
16.0, 26959.064836390597, 9336.815397359776, -28806.32475689945, -49914.66401990224, -737.9875466808733, 11632.20544245308, -25101.411354710028, -3042.8994349121376, 0.032, 0.898, 0.404, 192.0, 0.0, 0.0, 0.0, 0.0, 0.0, 0.0, 0.0, 0.0, 0.0, 1.657492310064641E9, 0.0, 2022-07-10 18:31:50.064
17.0, 27124.35598663759, 9133.61568851658, -29031.6526927534, -50893.938647978146, -706.2927730432478, 12247.459560329862, -25085.943947546955, -4003.733873812422, 0.032, 0.898, 0.404, 192.0, 0.0, 0.0, 0.0, 0.0, 0.0, 0.0, 0.0, 0.0, 0.0, 1.657492310071095E9, 0.0, 2022-07-10 18:31:50.071
18.0, 23634.309903897036, 9250.35884980665, -28634.261028082496, -51098.16653706629, -88.75877723202434, 6174.736461011942, -24502.675175985718, -4860.073907384147, 0.032, 0.898, 0.404, 192.0, 0.0, 0.0, 0.0, 0.0, 0.0, 0.0, 0.0, 0.0, 0.0, 1.657492310071115E9, 0.0, 2022-07-10 18:31:50.071
19.0, 22865.72281905685, 9478.614864184245, -28338.480393705417, -50172.64785440539, -8.091331492821157, 4523.635449842865, -24392.749296754515, -4061.4013745071147, 0.032, 0.898, 0.404, 192.0, 0.0, 0.0, 0.0, 0.0, 0.0, 0.0, 0.0, 0.0, 0.0, 1.657492310077365E9, 0.0, 2022-07-10 18:31:50.077
20.0, 26383.239195732975, 9395.064043410308, -28702.478552160093, -49799.03844583493, -640.5339408557345, 10602.035892252434, -24971.12303628004, -3033.9363853855593, 0.032, 0.898, 0.402, 192.0, 1.0, 0.0, 28.0, 16.0, 12.0, 144.0, 0.0, 0.0, 0.0, 1.657492310077396E9, 0.0, 2022-07-10 18:31:50.077
21.0, 27485.71663924654, 9157.017964961287, -29043.521469059167, -50726.18880584107, -781.3946344130796, 12856.410486270248, -25142.851488930166, -3744.9006730199667, 0.032, 0.898, 0.402, 192.0, 0.0, 0.0, 0.0, 0.0, 0.0, 0.0, 0.0, 0.0, 0.0, 1.657492310084651E9, 0.0, 2022-07-10 18:31:50.084
22.0, 24226.385262773667, 9225.034323338787, -28721.186962269185, -51162.60661633094, -186.45825224617153, 7259.600729894725, -24582.38149671334, -4784.882639036494, 0.032, 0.898, 0.402, 192.0, 0.0, 0.0, 0.0, 0.0, 0.0, 0.0, 0.0, 0.0, 0.0, 1.65749231008467E9, 0.0, 2022-07-10 18:31:50.084
23.0, 22593.791496013582, 9455.614919139734, -28346.102338564677, -50359.17316188493, 48.19036104564203, 4104.540241305857, -24326.632836655717, -4284.8517638268195, 0.032, 0.898, 0.402, 192.0, 0.0, 0.0, 0.0, 0.0, 0.0, 0.0, 0.0, 0.0, 0.0, 1.657492310091757E9, 0.0, 2022-07-10 18:31:50.091
24.0, 25740.76065310963, 9432.458511884035, -28612.155152816198, -49749.21640744405, -527.6352796119785, 9438.672296842611, -24866.136892573464, -3100.7010460735614, 0.032, 0.898, 0.402, 192.0, 0.0, 0.0, 0.0, 0.0, 0.0, 0.0, 0.0, 0.0, 0.0, 1.657492310099695E9, 0.0, 2022-07-10 18:31:50.099
25.0, 27705.121362819835, 9196.044110780253, -29017.21346583527, -50523.79375979826, -812.798835372786, 13168.552597588612, -25155.860204203156, -3504.842937569969, 0.032, 0.898, 0.402, 192.0, 0.0, 0.0, 0.0, 0.0, 0.0, 0.0, 0.0, 0.0, 0.0, 1.657492310099732E9, 0.0, 2022-07-10 18:31:50.099
26.0, 24885.493503271762, 9198.033416036775, -28790.812646247465, -51164.23829367618, -277.96629404619864, 8421.936145059604, -24661.59607906295, -4671.693405114818, 0.032, 0.898, 0.402, 192.0, 0.0, 0.0, 0.0, 0.0, 0.0, 0.0, 0.0, 0.0, 0.0, 1.657492310107939E9, 0.0, 2022-07-10 18:31:50.107
27.0, 22493.92390178727, 9427.407017637137, -28358.239335803908, -50517.959954495425, 92.33505634487348, 3994.83787951921, -24294.602786851265, -4467.867847426874, 0.032, 0.898, 0.402, 192.0, 0.0, 0.0, 0.0, 0.0, 0.0, 0.0, 0.0, 0.0, 0.0, 1.657492310107978E9, 0.0, 2022-07-10 18:31:50.107
28.0, 25031.159821887, 9460.956986064552, -28520.334186593795, -49741.39329688469, -404.54422289660255, 8196.854078394661, -24757.909745920868, -3243.752210587527, 0.032, 0.898, 0.402, 192.0, 0.0, 0.0, 0.0, 0.0, 0.0, 0.0, 0.0, 0.0, 0.0, 1.657492310115745E9, 0.0, 2022-07-10 18:31:50.115
29.0, 27740.906505692783, 9219.289925013773, -28992.20186378978, -50339.6824407199, -843.5101322543779, 13157.868463738974, -25190.17013194205, -3335.841397743392, 0.032, 0.898, 0.402, 192.0, 0.0, 0.0, 0.0, 0.0, 0.0, 0.0, 0.0, 0.0, 0.0, 1.657492310115766E9, 0.0, 2022-07-10 18:31:50.115
30.0, 25562.281973634002, 9153.95577597091, -28883.95236539273, -51142.26652887661, -408.38872294291536, 9600.454223210123, -24792.353784126495, -4542.94735705225, 0.028, 0.896, 0.41000000000000003, 192.0, 0.0, 224.0, 28.0, 0.0, 12.0, 208.0, 0.0, 0.0, 0.0, 1.657492310124166E9, 0.0, 2022-07-10 18:31:50.124
31.0, 22585.409591842843, 9390.616046263702, -28419.14783944462, -50699.21025028351, 84.8248702078903, 4217.841233949809, -24311.85833357076, -4645.430105379833, 0.028, 0.896, 0.41000000000000003, 192.0, 0.0, 0.0, 0.0, 0.0, 0.0, 0.0, 0.0, 0.0, 0.0, 1.657492310124227E9, 0.0, 2022-07-10 18:31:50.124
32.0, 24338.05457807238, 9498.932599894119, -28444.33825544575, -49784.64392240571, -277.4745556681819, 6996.230124977842, -24629.364863558396, -3428.064695365989, 0.028, 0.896, 0.41000000000000003, 192.0, 0.0, 0.0, 0.0, 0.0, 0.0, 0.0, 0.0, 0.0, 0.0, 1.657492310130004E9, 0.0, 2022-07-10 18:31:50.130
33.0, 27601.83395169186, 9272.732946006412, -28940.904610264854, -50153.55946464056, -829.7191059254535, 12850.48727398959, -25176.6920300355, -3208.972896215069, 0.028, 0.896, 0.41000000000000003, 192.0, 0.0, 0.0, 0.0, 0.0, 0.0, 0.0, 0.0, 0.0, 0.0, 1.657492310130032E9, 0.0, 2022-07-10 18:31:50.130
34.0, 26217.94804548598, 9145.52916831126, -28958.607191873456, -51083.883772359346, -531.3456691915595, 10724.992838501077, -24921.390404866983, -4386.1051662093605, 0.028, 0.896, 0.41000000000000003, 192.0, 0.0, 0.0, 0.0, 0.0, 0.0, 0.0, 0.0, 0.0, 0.0, 1.657492310137157E9, 0.0, 2022-07-10 18:31:50.137
35.0, 22853.719932284348, 9347.968917842974, -28486.761866421923, -50875.87843845826, 42.96005284310017, 4731.998411655237, -24368.520005764964, -4773.080917964091, 0.028, 0.896, 0.41000000000000003, 192.0, 0.0, 0.0, 0.0, 0.0, 0.0, 0.0, 0.0, 0.0, 0.0, 1.657492310137205E9, 0.0, 2022-07-10 18:31:50.137
36.0, 23691.97740459173, 9501.860678417765, -28384.56969077226, -49896.38029293779, -161.02196705603208, 5892.83625994161, -24532.537106578005, -3644.586043904548, 0.028, 0.896, 0.41000000000000003, 192.0, 0.0, 0.0, 0.0, 0.0, 0.0, 0.0, 0.0, 0.0, 0.0, 1.657492310147852E9, 0.0, 2022-07-10 18:31:50.147
37.0, 27284.752104848874, 9321.102121007696, -28858.113748802396, -49988.961218471675, -777.4160239000349, 12237.37892358052, -25125.797107910766, -3070.6155980367184, 0.028, 0.896, 0.41000000000000003, 192.0, 0.0, 0.0, 0.0, 0.0, 0.0, 0.0, 0.0, 0.0, 0.0, 1.657492310147904E9, 0.0, 2022-07-10 18:31:50.147
38.0, 26794.243072777164, 9144.970374699877, -28994.92877661333, -50971.6333117048, -626.8323215046313, 11702.434623531655, -25009.836257676634, -4135.564462609824, 0.028, 0.896, 0.41000000000000003, 192.0, 0.0, 0.0, 0.0, 0.0, 0.0, 0.0, 0.0, 0.0, 0.0, 1.657492310154046E9, 0.0, 2022-07-10 18:31:50.154
39.0, 23272.546919887893, 9300.560867853268, -28554.331189910317, -51006.09970165488, -8.001924514999928, 5514.3541710798945, -24418.274988922476, -4816.443302207387, 0.028, 0.896, 0.41000000000000003, 192.0, 0.0, 0.0, 0.0, 0.0, 0.0, 0.0, 0.0, 0.0, 0.0, 1.657492310160558E9, 0.0, 2022-07-10 18:31:50.160
40.0, 23169.01363957091, 9501.368940039747, -28338.480393705417, -50035.81047485, -49.62087269078168, 5008.109510911645, -24436.35755018682, -3887.393043922549, 0.034, 0.894, 0.40800000000000003, 192.0, 1.0, 16.0, 27.0, 240.0, 12.0, 192.0, 0.0, 0.0, 0.0, 1.657492310160711E9, 0.0, 2022-07-10 18:31:50.160
41.0, 26817.757107944144, 9385.00575840542, -28765.957506413164, -49857.734126774565, -705.1081305871166, 11365.906759012552, -25073.605784607626, -3032.4164667625987, 0.034, 0.894, 0.40800000000000003, 192.0, 0.0, 0.0, 0.0, 0.0, 0.0, 0.0, 0.0, 0.0, 0.0, 1.657492310166739E9, 0.0, 2022-07-10 18:31:50.166
42.0, 27261.05925572625, 9163.72348829788, -29027.69643398481, -50839.24392929601, -725.8505494416415, 12470.977004882932, -25123.941913120976, -3929.6378409430795, 0.034, 0.894, 0.40800000000000003, 192.0, 0.0, 0.0, 0.0, 0.0, 0.0, 0.0, 0.0, 0.0, 0.0, 1.657492310166783E9, 0.0, 2022-07-10 18:31:50.166
43.0, 23805.18899025786, 9260.752410978366, -28636.920885672676, -51108.068359859986, -95.39724533525055, 6482.318816461422, -24503.681004486207, -4824.735799400306, 0.034, 0.894, 0.40800000000000003, 192.0, 0.0, 0.0, 0.0, 0.0, 0.0, 0.0, 0.0, 0.0, 0.0, 1.657492310174726E9, 0.0, 2022-07-10 18:31:50.174
44.0, 22781.501445949252, 9485.767422409943, -28322.633006886605, -50211.137558357426, 27.98438405804444, 4398.331570426413, -24356.33830503682, -4094.7501772344326, 0.034, 0.894, 0.40800000000000003, 192.0, 0.0, 0.0, 0.0, 0.0, 0.0, 0.0, 0.0, 0.0, 0.0, 1.657492310174753E9, 0.0, 2022-07-10 18:31:50.174
45.0, 26230.420318892044, 9421.170880934105, -28661.73132201807, -49764.1473727402, -593.1929460993941, 10322.326162138721, -24932.633332328005, -3024.571004458786, 0.034, 0.894, 0.40800000000000003, 192.0, 0.0, 0.0, 0.0, 0.0, 0.0, 0.0, 0.0, 0.0, 0.0, 1.657492310182562E9, 0.0, 2022-07-10 18:31:50.182
46.0, 27599.017631890492, 9177.156886715518, -29022.309663571083, -50654.55146486181, -774.3314831652026, 13022.52865106209, -25142.40445404106, -3655.62780566547, 0.034, 0.894, 0.40800000000000003, 192.0, 0.0, 0.0, 0.0, 0.0, 0.0, 0.0, 0.0, 0.0, 0.0, 1.657492310182586E9, 0.0, 2022-07-10 18:31:50.182
47.0, 24433.004788518523, 9215.19955577845, -28733.435718230692, -51170.0273954901, -197.43295877372728, 7630.7290948306445, -24619.999482631625, -4748.538702552164, 0.034, 0.894, 0.40800000000000003, 192.0, 0.0, 0.0, 0.0, 0.0, 0.0, 0.0, 0.0, 0.0, 0.0, 1.657492310190796E9, 0.0, 2022-07-10 18:31:50.190
48.0, 22549.646800714352, 9463.460381443547, -28336.89341984909, -50405.46362465187, 80.30981782791828, 4068.933912388553, -24331.304351246876, -4333.913842906219, 0.034, 0.894, 0.40800000000000003, 192.0, 0.0, 0.0, 0.0, 0.0, 0.0, 0.0, 0.0, 0.0, 0.0, 1.657492310190829E9, 0.0, 2022-07-10 18:31:50.190
49.0, 25554.548270052466, 9464.130933777205, -28566.736408083012, -49721.45554083056, -473.00761616320807, 9121.61280174408, -24823.33330194155, -3113.0615607573463, 0.034, 0.894, 0.40800000000000003, 192.0, 0.0, 0.0, 0.0, 0.0, 0.0, 0.0, 0.0, 0.0, 0.0, 1.657492310205887E9, 0.0, 2022-07-10 18:31:50.205
50.0, 27770.54491884052, 9216.138329045574, -29005.99289011871, -50470.88718067255, -808.6190591596436, 13248.594194483067, -25148.618238999636, -3427.8411779214357, 0.038, 0.89, 0.406, 192.0, 1.0, 48.0, 27.0, 208.0, 12.0, 176.0, 0.0, 0.0, 0.0, 1.657492310217585E9, 0.0, 2022-07-10 18:31:50.217
51.0, 25110.329700747694, 9194.703006112935, -28822.395661162816, -51190.4345381778, -306.82239613800004, 8809.090710769977, -24706.97012030722, -4628.465131338255, 0.038, 0.89, 0.406, 192.0, 0.0, 0.0, 0.0, 0.0, 0.0, 0.0, 0.0, 0.0, 0.0, 1.657492310224786E9, 0.0, 2022-07-10 18:31:50.224
52.0, 22509.16779150579, 9424.836567024777, -28378.22179534695, -50612.46313005246, 99.86759422631195, 4046.783333633344, -24326.38696746671, -4544.444923930755, 0.038, 0.89, 0.406, 192.0, 0.0, 0.0, 0.0, 0.0, 0.0, 0.0, 0.0, 0.0, 0.0, 1.657492310224813E9, 0.0, 2022-07-10 18:31:50.224
53.0, 24840.20886900531, 9485.230980543016, -28494.36145953673, -49756.19015171411, -355.8621234729437, 7866.674109300865, -24726.639655427894, -3305.621839239817, 0.038, 0.89, 0.406, 192.0, 0.0, 0.0, 0.0, 0.0, 0.0, 0.0, 0.0, 0.0, 0.0, 1.657492310231163E9, 0.0, 2022-07-10 18:31:50.231
54.0, 27749.646037774808, 9250.224739339918, -28972.532328669113, -50285.88179181598, -830.5684722147552, 13153.711039270287, -25188.60550983018, -3263.6005596638397, 0.038, 0.89, 0.406, 192.0, 0.0, 0.0, 0.0, 0.0, 0.0, 0.0, 0.0, 0.0, 0.0, 1.657492310231217E9, 0.0, 2022-07-10 18:31:50.231
55.0, 25780.412647773344, 9167.702098810923, -28895.463513787214, -51157.64452906186, -431.88040636544304, 9990.268646510678, -24828.67536886637, -4460.380013034345, 0.038, 0.89, 0.406, 192.0, 0.0, 0.0, 0.0, 0.0, 0.0, 0.0, 0.0, 0.0, 0.0, 1.657492310237413E9, 0.0, 2022-07-10 18:31:50.237
56.0, 22653.80592987608, 9395.153450388128, -28422.61235983519, -50786.09148098129, 87.12709988678694, 4375.398680615268, -24313.15473474917, -4656.561274118576, 0.038, 0.89, 0.406, 192.0, 0.0, 0.0, 0.0, 0.0, 0.0, 0.0, 0.0, 0.0, 0.0, 1.657492310237432E9, 0.0, 2022-07-10 18:31:50.237
57.0, 24159.508843363386, 9532.147292154705, -28414.05164170881, -49822.53012925746, -235.34151736992806, 6708.5184703491295, -24591.09867705091, -3450.125867143377, 0.038, 0.89, 0.406, 192.0, 0.0, 0.0, 0.0, 0.0, 0.0, 0.0, 0.0, 0.0, 0.0, 1.657492310243761E9, 0.0, 2022-07-10 18:31:50.243
58.0, 27558.538622681932, 9315.111853493674, -28908.76280173812, -50102.75394949364, -807.993210314895, 12763.85191248082, -25148.46177678845, -3117.040171270391, 0.038, 0.89, 0.406, 192.0, 0.0, 0.0, 0.0, 0.0, 0.0, 0.0, 0.0, 0.0, 0.0, 1.657492310243781E9, 0.0, 2022-07-10 18:31:50.243
59.0, 26417.660882194148, 9150.491255580337, -28965.469177421237, -51074.160763521286, -543.4603146863359, 11079.424450328881, -24922.820916512122, -4268.3561764188025, 0.038, 0.89, 0.406, 192.0, 0.0, 0.0, 0.0, 0.0, 0.0, 0.0, 0.0, 0.0, 0.0, 1.657492310250112E9, 0.0, 2022-07-10 18:31:50.250
60.0, 22965.38924758306, 9339.117627038673, -28504.196227097065, -50945.817046858916, 46.692794167136455, 4972.771402927805, -24364.29552606291, -4763.7155370373175, 0.03, 0.886, 0.406, 192.0, 0.0, 240.0, 27.0, 176.0, 12.0, 176.0, 0.0, 0.0, 0.0, 1.657492310250144E9, 0.0, 2022-07-10 18:31:50.250
61.0, 23524.048748499008, 9513.88591693472, -28370.75631269888, -49949.73390695261, -112.40692286573922, 5637.556986517548, -24496.215521838134, -3691.9493904053443, 0.03, 0.886, 0.406, 192.0, 0.0, 0.0, 0.0, 0.0, 0.0, 0.0, 0.0, 0.0, 0.0, 1.657492310256129E9, 0.0, 2022-07-10 18:31:50.256
62.0, 27179.922423353484, 9348.259490520893, -28834.487954913136, -49945.57648248393, -744.4695525729123, 12040.683572373817, -25096.404563952037, -3031.053010350825, 0.03, 0.886, 0.406, 192.0, 0.0, 0.0, 0.0, 0.0, 0.0, 0.0, 0.0, 0.0, 0.0, 1.657492310256162E9, 0.0, 2022-07-10 18:31:50.256
63.0, 26969.503101051225, 9153.419334103983, -29008.585692475524, -50950.75678238354, -643.2608536792819, 11992.13558341689, -25010.61856873257, -4046.716278399978, 0.03, 0.886, 0.406, 192.0, 0.0, 0.0, 0.0, 0.0, 0.0, 0.0, 0.0, 0.0, 0.0, 1.657492310262623E9, 0.0, 2022-07-10 18:31:50.262
64.0, 23427.377453729805, 9291.933094493521, -28580.50508266748, -51065.10830701689, -19.356610698295917, 5813.4205118919035, -24415.570427843384, -4794.203316474356, 0.03, 0.886, 0.406, 192.0, 0.0, 0.0, 0.0, 0.0, 0.0, 0.0, 0.0, 0.0, 0.0, 1.657492310262672E9, 0.0, 2022-07-10 18:31:50.262
65.0, 23039.485280452405, 9504.40877728567, -28330.433765701506, -50104.00564718314, -11.10881699428761, 4823.685267410907, -24388.97185194157, -3922.552337950747, 0.03, 0.886, 0.406, 192.0, 0.0, 0.0, 0.0, 0.0, 0.0, 0.0, 0.0, 0.0, 0.0, 1.657492310268714E9, 0.0, 2022-07-10 18:31:50.268
66.0, 26674.258908541073, 9400.048482423841, -28737.704901421657, -49823.87123392478, -661.7457463438209, 11111.320389666604, -25002.907216895488, -2999.4252919465653, 0.03, 0.886, 0.406, 192.0, 0.0, 0.0, 0.0, 0.0, 0.0, 0.0, 0.0, 0.0, 0.0, 1.657492310274914E9, 0.0, 2022-07-10 18:31:50.274
67.0, 27396.55553061432, 9175.636968092558, -29028.16582061837, -50792.349969428775, -722.2072150954265, 12701.334083239328, -25093.364726706117, -3823.020019891265, 0.03, 0.886, 0.406, 192.0, 0.0, 0.0, 0.0, 0.0, 0.0, 0.0, 0.0, 0.0, 0.0, 1.657492310274949E9, 0.0, 2022-07-10 18:31:50.274
68.0, 23988.160370369, 9256.25971034285, -28668.25803139902, -51150.67078479181, -104.47205358410521, 6834.291736399143, -24521.651807028273, -4799.277162465712, 0.03, 0.886, 0.406, 192.0, 0.0, 0.0, 0.0, 0.0, 0.0, 0.0, 0.0, 0.0, 0.0, 1.657492310281006E9, 0.0, 2022-07-10 18:31:50.281
69.0, 22690.01575589368, 9484.582779953811, -28323.0353382868, -50279.355082435024, 66.47408801008321, 4264.958711261596, -24342.77079615245, -4178.144535797183, 0.03, 0.886, 0.406, 192.0, 0.0, 0.0, 0.0, 0.0, 0.0, 0.0, 0.0, 0.0, 0.0, 1.657492310281027E9, 0.0, 2022-07-10 18:31:50.281
70.0, 26046.15253760249, 9438.314668931327, -28632.606998992804, -49746.869474276245, -544.8014193536543, 9971.02379453466, -24901.65381451295, -3048.1967983480454, 0.032, 0.888, 0.40800000000000003, 192.0, 1.0, 0.0, 27.0, 192.0, 12.0, 192.0, 0.0, 0.0, 0.0, 1.657492310287358E9, 0.0, 2022-07-10 18:31:50.287
71.0, 27678.612193895842, 9190.992616533353, -29024.83541069453, -50603.52243227034, -787.0049222713617, 13126.821890690553, -25148.327666321715, -3587.589095543515, 0.032, 0.888, 0.40800000000000003, 192.0, 0.0, 0.0, 0.0, 0.0, 0.0, 0.0, 0.0, 0.0, 0.0, 1.657492310287471E9, 0.0, 2022-07-10 18:31:50.287
72.0, 24637.50089854013, 9207.421148708005, -28768.684419236713, -51194.07787252401, -226.44552307671586, 7988.804041004663, -24628.470793780183, -4716.642763214441, 0.032, 0.888, 0.40800000000000003, 192.0, 0.0, 0.0, 0.0, 0.0, 0.0, 0.0, 0.0, 0.0, 0.0, 1.657492310293452E9, 0.0, 2022-07-10 18:31:50.293
73.0, 22522.02004456759, 9460.10761977525, -28350.550335711283, -50478.531477276265, 100.15816690423095, 4033.4393421935256, -24298.96137702005, -4397.169279714737, 0.032, 0.888, 0.40800000000000003, 192.0, 0.0, 0.0, 0.0, 0.0, 0.0, 0.0, 0.0, 0.0, 0.0, 1.657492310293471E9, 0.0, 2022-07-10 18:31:50.293
74.0, 25342.74313959398, 9472.132858292205, -28556.186384700108, -49737.03470671591, -432.5062552101917, 8744.516521038595, -24794.611310316483, -3190.5327070394405, 0.032, 0.888, 0.40800000000000003, 192.0, 0.0, 0.0, 0.0, 0.0, 0.0, 0.0, 0.0, 0.0, 0.0, 1.657492310299868E9, 0.0, 2022-07-10 18:31:50.299
75.0, 27782.950137013217, 9215.668942412012, -29010.55264598759, -50429.379991219044, -812.4635592059565, 13245.554357237144, -25177.943727725, -3423.3708290303744, 0.032, 0.888, 0.40800000000000003, 192.0, 0.0, 0.0, 0.0, 0.0, 0.0, 0.0, 0.0, 0.0, 0.0, 1.657492310299903E9, 0.0, 2022-07-10 18:31:50.299
76.0, 25309.528447333392, 9174.921712269988, -28843.629818395355, -51179.88451479489, -333.2645098286283, 9161.28714815225, -24723.063376315044, -4561.9686915837165, 0.032, 0.888, 0.40800000000000003, 192.0, 0.0, 0.0, 0.0, 0.0, 0.0, 0.0, 0.0, 0.0, 0.0, 1.657492310306871E9, 0.0, 2022-07-10 18:31:50.306
77.0, 22536.571030207997, 9413.526584330391, -28385.955498928488, -50652.24923518291, 109.54589957545991, 4121.192290925061, -24292.94875776157, -4529.4469034012445, 0.032, 0.888, 0.40800000000000003, 192.0, 0.0, 0.0, 0.0, 0.0, 0.0, 0.0, 0.0, 0.0, 0.0, 1.657492310306921E9, 0.0, 2022-07-10 18:31:50.306
78.0, 24647.96151494521, 9484.359262509259, -28471.808549381323, -49763.163895984166, -316.6795154427905, 7533.63311691679, -24691.905044544346, -3316.4847870450963, 0.032, 0.888, 0.40800000000000003, 192.0, 0.0, 0.0, 0.0, 0.0, 0.0, 0.0, 0.0, 0.0, 0.0, 1.657492310314936E9, 0.0, 2022-07-10 18:31:50.314
79.0, 27728.389528797812, 9253.622204497124, -28955.522651138624, -50219.92179392836, -819.571413942744, 13086.946378582285, -25171.93110846652, -3194.10898615229, 0.032, 0.888, 0.40800000000000003, 192.0, 0.0, 0.0, 0.0, 0.0, 0.0, 0.0, 0.0, 0.0, 0.0, 1.657492310314969E9, 0.0, 2022-07-10 18:31:50.314
80.0, 25982.20419671586, 9158.694345795435, -28916.697671019756, -51124.20631935672, -457.83078167805456, 10327.467063363441, -24860.995991348744, -4414.693047367698, 0.034, 0.894, 0.406, 192.0, 1.0, 16.0, 27.0, 240.0, 12.0, 176.0, 0.0, 0.0, 0.0, 1.657492310321107E9, 0.0, 2022-07-10 18:31:50.321
81.0, 22728.88543950146, 9361.715240682988, -28442.10308100022, -50823.463597710564, 94.25730636802989, 4513.1301299488705, -24332.0419588139, -4715.748693436229, 0.034, 0.894, 0.406, 192.0, 0.0, 0.0, 0.0, 0.0, 0.0, 0.0, 0.0, 0.0, 0.0, 1.657492310328124E9, 0.0, 2022-07-10 18:31:50.328
82.0, 23965.428646257955, 9499.40198652768, -28388.14596988511, -49834.600071263325, -173.20366778417443, 6371.275350007457, -24530.838373999402, -3489.7555100626364, 0.034, 0.894, 0.406, 192.0, 0.0, 0.0, 0.0, 0.0, 0.0, 0.0, 0.0, 0.0, 0.0, 1.657492310328201E9, 0.0, 2022-07-10 18:31:50.328
83.0, 27470.830377439306, 9298.325693407738, -28887.52864450558, -50041.44311445273, -777.5948378556774, 12595.029186609887, -25112.54252344877, -3044.5534640018304, 0.034, 0.894, 0.406, 192.0, 0.0, 0.0, 0.0, 0.0, 0.0, 0.0, 0.0, 0.0, 0.0, 1.657492310335101E9, 0.0, 2022-07-10 18:31:50.335
84.0, 26591.624509289803, 9131.67108674897, -28991.576014945033, -51040.186111949224, -575.3115505351485, 11388.839648823698, -24966.272707733242, -4197.076463350829, 0.034, 0.894, 0.406, 192.0, 0.0, 0.0, 0.0, 0.0, 0.0, 0.0, 0.0, 0.0, 0.0, 1.657492310335129E9, 0.0, 2022-07-10 18:31:50.335
85.0, 23080.947766417, 9292.871867760643, -28531.420651843626, -50986.45251827867, 28.61023290279304, 5212.963248844534, -24369.68229647664, -4775.6290168319965, 0.034, 0.894, 0.406, 192.0, 0.0, 0.0, 0.0, 0.0, 0.0, 0.0, 0.0, 0.0, 0.0, 1.657492310343154E9, 0.0, 2022-07-10 18:31:50.343
86.0, 23367.47477858958, 9487.332044521814, -28349.41039674406, -49985.183773658726, -74.45366078062783, 5388.245628863052, -24442.437224678662, -3749.303966677662, 0.034, 0.894, 0.406, 192.0, 0.0, 0.0, 0.0, 0.0, 0.0, 0.0, 0.0, 0.0, 0.0, 1.657492310343199E9, 0.0, 2022-07-10 18:31:50.343
87.0, 27050.63993342399, 9346.56075794229, -28797.629928306334, -49894.659208614736, -716.641630726055, 11813.835717896905, -25063.301630413727, -3012.7022281530176, 0.034, 0.894, 0.406, 192.0, 0.0, 0.0, 0.0, 0.0, 0.0, 0.0, 0.0, 0.0, 0.0, 1.657492310350555E9, 0.0, 2022-07-10 18:31:50.350
88.0, 27109.40266959699, 9145.66327877799, -29012.94428264431, -50898.1631276802, -670.8652580815861, 12238.9882491813, -25049.37649361807, -3987.9311904825204, 0.034, 0.894, 0.406, 192.0, 0.0, 0.0, 0.0, 0.0, 0.0, 0.0, 0.0, 0.0, 0.0, 1.657492310350583E9, 0.0, 2022-07-10 18:31:50.350
89.0, 23573.24493804514, 9263.993413924387, -28609.51764697047, -51092.265676530085, -51.2749017804744, 6094.739567606398, -24461.41385572122, -4806.4520724358645, 0.034, 0.894, 0.406, 192.0, 0.0, 0.0, 0.0, 0.0, 0.0, 0.0, 0.0, 0.0, 0.0, 1.657492310358561E9, 0.0, 2022-07-10 18:31:50.358
90.0, 22910.694528900927, 9483.6887101756, -28328.869143589636, -50148.86559830494, 9.678305349147958, 4622.117235912948, -24379.762933225982, -3999.4423388770033, 0.04, 0.886, 0.406, 192.0, 1.0, 64.0, 27.0, 176.0, 12.0, 176.0, 0.0, 0.0, 0.0, 1.657492310358588E9, 0.0, 2022-07-10 18:31:50.358
91.0, 26495.82493255436, 9389.319645085294, -28712.02274704251, -49798.68081792365, -637.516455354268, 10782.682690940224, -24990.747867911803, -3024.0569143363136, 0.04, 0.886, 0.406, 192.0, 0.0, 0.0, 0.0, 0.0, 0.0, 0.0, 0.0, 0.0, 0.0, 1.657492310366526E9, 0.0, 2022-07-10 18:31:50.366
92.0, 27498.658299286166, 9160.370726629582, -29033.597294521012, -50739.35398332524, -755.2877968892809, 12848.050933843962, -25132.59203822518, -3772.1921529998963, 0.04, 0.886, 0.406, 192.0, 0.0, 0.0, 0.0, 0.0, 0.0, 0.0, 0.0, 0.0, 0.0, 1.657492310366547E9, 0.0, 2022-07-10 18:31:50.366
93.0, 24168.717762078973, 9220.228698280895, -28706.099534761852, -51173.290750180575, -155.94812106467737, 7155.933339111011, -24575.407752443287, -4796.952581042359, 0.04, 0.886, 0.406, 192.0, 0.0, 0.0, 0.0, 0.0, 0.0, 0.0, 0.0, 0.0, 0.0, 1.657492310372907E9, 0.0, 2022-07-10 18:31:50.372
94.0, 22607.604874086963, 9460.286433730893, -28338.011007071855, -50341.53763550969, 62.204904819119555, 4147.992032526974, -24342.10024381879, -4265.472801384068, 0.04, 0.886, 0.406, 192.0, 0.0, 0.0, 0.0, 0.0, 0.0, 0.0, 0.0, 0.0, 0.0, 1.657492310372928E9, 0.0, 2022-07-10 18:31:50.372
95.0, 25840.471785124755, 9433.643154340167, -28625.34268204483, -49741.43800037361, -531.9715180363081, 9625.577583977889, -24891.72963997479, -3109.1276537332124, 0.04, 0.886, 0.406, 192.0, 0.0, 0.0, 0.0, 0.0, 0.0, 0.0, 0.0, 0.0, 0.0, 1.657492310381657E9, 0.0, 2022-07-10 18:31:50.381
96.0, 27726.936665408215, 9190.187953732962, -29025.93064617284, -50547.55366415426, -805.1768905135264, 13202.907228816419, -25163.30333510677, -3557.280130062119, 0.04, 0.886, 0.406, 192.0, 0.0, 0.0, 0.0, 0.0, 0.0, 0.0, 0.0, 0.0, 0.0, 1.657492310393959E9, 0.0, 2022-07-10 18:31:50.393
97.0, 24817.924179783367, 9192.043148522753, -28777.55806178547, -51174.45304089225, -252.15002920031898, 8319.699265921028, -24647.313314356008, -4694.738053648241, 0.04, 0.886, 0.406, 192.0, 0.0, 0.0, 0.0, 0.0, 0.0, 0.0, 0.0, 0.0, 0.0, 1.657492310393981E9, 0.0, 2022-07-10 18:31:50.393
98.0, 22482.79273304853, 9423.517814101913, -28355.46771949145, -50509.53334683578, 99.48761457057174, 4014.6862285955226, -24304.34814743378, -4463.0622223689825, 0.04, 0.886, 0.406, 192.0, 0.0, 0.0, 0.0, 0.0, 0.0, 0.0, 0.0, 0.0, 0.0, 1.657492310400471E9, 0.0, 2022-07-10 18:31:50.400
99.0, 25116.610540939637, 9454.139704005684, -28536.69566353508, -49732.76552352495, -412.2108712447729, 8382.46296435153, -24779.635641531426, -3250.7259548575826, 0.04, 0.886, 0.406, 192.0, 0.0, 0.0, 0.0, 0.0, 0.0, 0.0, 0.0, 0.0, 0.0, 1.657492310400499E9, 0.0, 2022-07-10 18:31:50.400
100.0, 27764.845224004417, 9195.06063402422, -29003.31068078407, -50355.77569672772, -831.0825623372272, 13244.86145315903, -25201.12248672515, -3365.7033283356823, 0.042, 0.896, 0.406, 192.0, 1.0, 80.0, 28.0, 0.0, 12.0, 176.0, 0.0, 0.0, 0.0, 1.657492310406686E9, 0.0, 2022-07-10 18:31:50.406
101.0, 25469.99162077804, 9112.783862684235, -28875.928089133275, -51166.026433232604, -379.8008417845776, 9521.686675749621, -24788.129304424445, -4580.565342970532, 0.042, 0.896, 0.406, 192.0, 0.0, 0.0, 0.0, 0.0, 0.0, 0.0, 0.0, 0.0, 0.0, 1.657492310406737E9, 0.0, 2022-07-10 18:31:50.406
102.0, 22509.25719848361, 9321.929135552542, -28407.927263728056, -50702.83123288527, 102.99683845005495, 4199.73632094101, -24298.62610085322, -4621.044352179093, 0.042, 0.896, 0.406, 192.0, 0.0, 0.0, 0.0, 0.0, 0.0, 0.0, 0.0, 0.0, 0.0, 1.657492310413133E9, 0.0, 2022-07-10 18:31:50.413
103.0, 24354.326648035843, 9404.071796425796, -28453.23424973896, -49788.1531462852, -274.9711602891875, 7153.094667565188, -24634.952799672225, -3384.1435175113106, 0.042, 0.896, 0.406, 192.0, 0.0, 0.0, 0.0, 0.0, 0.0, 0.0, 0.0, 0.0, 0.0, 1.657492310413161E9, 0.0, 2022-07-10 18:31:50.413
104.0, 27574.92245136767, 9165.176351687474, -28948.6830173353, -50178.146383541396, -810.2954399937917, 12939.134292499339, -25164.487977562905, -3184.207163358589, 0.042, 0.896, 0.406, 192.0, 0.0, 0.0, 0.0, 0.0, 0.0, 0.0, 0.0, 0.0, 0.0, 1.657492310419305E9, 0.0, 2022-07-10 18:31:50.419
105.0, 26064.078636655646, 9024.092140685576, -28955.38854067189, -51118.908955920815, -504.85885201202063, 10622.107758773298, -24899.55275053415, -4376.67273004922, 0.042, 0.896, 0.406, 192.0, 0.0, 0.0, 0.0, 0.0, 0.0, 0.0, 0.0, 0.0, 0.0, 1.657492310419328E9, 0.0, 2022-07-10 18:31:50.419
106.0, 22690.328680316055, 9216.317143001217, -28482.895014631154, -50892.485784588556, 57.75690767251345, 4651.822704294051, -24342.1449473077, -4766.911836494427, 0.042, 0.896, 0.406, 192.0, 0.0, 0.0, 0.0, 0.0, 0.0, 0.0, 0.0, 0.0, 0.0, 1.657492310425822E9, 0.0, 2022-07-10 18:31:50.425
107.0, 23640.38957838888, 9360.217673804484, -28400.350022357707, -49907.84673784336, -174.72358640713531, 6013.4686247669015, -24540.583734581916, -3633.879558310456, 0.042, 0.896, 0.406, 192.0, 0.0, 0.0, 0.0, 0.0, 0.0, 0.0, 0.0, 0.0, 0.0, 1.657492310425842E9, 0.0, 2022-07-10 18:31:50.425
108.0, 27230.280903611292, 9167.85856102211, -28887.483941016668, -50032.12243701487, -792.3022857072694, 12346.231919077865, -25138.291733061284, -3092.7661767919276, 0.042, 0.896, 0.406, 192.0, 0.0, 0.0, 0.0, 0.0, 0.0, 0.0, 0.0, 0.0, 0.0, 1.657492310433356E9, 0.0, 2022-07-10 18:31:50.433
109.0, 26609.50590485405, 8983.926055899388, -29020.856800181486, -51034.1958444352, -631.2132634178714, 11602.678788027619, -25008.875132665056, -4191.890858637197, 0.042, 0.896, 0.406, 192.0, 0.0, 0.0, 0.0, 0.0, 0.0, 0.0, 0.0, 0.0, 0.0, 1.657492310433375E9, 0.0, 2022-07-10 18:31:50.433
110.0, 23060.495920240395, 9131.84990070461, -28578.42637043314, -51044.49999862909, -19.669535120670215, 5385.004625917033, -24432.55775362942, -4830.949584358881, 0.042, 0.89, 0.404, 192.0, 1.0, 80.0, 27.0, 208.0, 12.0, 160.0, 0.0, 0.0, 0.0, 1.657492310440507E9, 0.0, 2022-07-10 18:31:50.440
111.0, 23064.921565642544, 9333.932022325042, -28362.866146906155, -50056.53054196007, -68.73161420006922, 5074.203619265988, -24449.433320693177, -3855.8100290072002, 0.042, 0.89, 0.404, 192.0, 0.0, 0.0, 0.0, 0.0, 0.0, 0.0, 0.0, 0.0, 0.0, 1.657492310440578E9, 0.0, 2022-07-10 18:31:50.440
112.0, 26750.321894922483, 9204.090738784163, -28798.099314939896, -49896.02266502651, -718.09449411565, 11479.587731312244, -25065.313287414705, -3050.588435004763, 0.042, 0.89, 0.404, 192.0, 0.0, 0.0, 0.0, 0.0, 0.0, 0.0, 0.0, 0.0, 0.0, 1.65749231044838E9, 0.0, 2022-07-10 18:31:50.448
113.0, 27093.80115196719, 8993.693768226358, -29053.490347086234, -50891.50230783252, -719.6591162275215, 12404.234695939387, -25099.265587242317, -3971.457954818959, 0.042, 0.89, 0.404, 192.0, 0.0, 0.0, 0.0, 0.0, 0.0, 0.0, 0.0, 0.0, 0.0, 1.657492310456021E9, 0.0, 2022-07-10 18:31:50.456
114.0, 23588.935862652765, 9104.670179446957, -28657.8644702273, -51147.0721539345, -89.49638479904948, 6346.353154939789, -24485.017297866023, -4847.2440060668005, 0.042, 0.89, 0.404, 192.0, 0.0, 0.0, 0.0, 0.0, 0.0, 0.0, 0.0, 0.0, 0.0, 1.657492310456071E9, 0.0, 2022-07-10 18:31:50.456
115.0, 22654.76705488766, 9330.75807461239, -28347.018760087343, -50224.74977073071, 13.768674584469151, 4403.91950654024, -24369.190558098624, -4117.884232745675, 0.042, 0.89, 0.404, 192.0, 0.0, 0.0, 0.0, 0.0, 0.0, 0.0, 0.0, 0.0, 0.0, 1.657492310464959E9, 0.0, 2022-07-10 18:31:50.464
116.0, 26176.37380079911, 9250.001221895363, -28708.379412696293, -49804.84989939331, -628.5757575721452, 10428.899279701625, -24979.460236961873, -3080.94210397507, 0.042, 0.89, 0.404, 192.0, 0.0, 0.0, 0.0, 0.0, 0.0, 0.0, 0.0, 0.0, 0.0, 1.657492310465002E9, 0.0, 2022-07-10 18:31:50.465
117.0, 27451.652580696653, 9021.767559262224, -29062.386341379446, -50719.03624761537, -798.314904965747, 12960.122580542873, -25168.8912712206, -3755.6742138474247, 0.042, 0.89, 0.404, 192.0, 0.0, 0.0, 0.0, 0.0, 0.0, 0.0, 0.0, 0.0, 0.0, 1.657492310471094E9, 0.0, 2022-07-10 18:31:50.471
118.0, 24214.717652167994, 9086.185286782418, -28748.277276549015, -51200.783395860606, -197.5223657515485, 7451.088124643341, -24601.33577601144, -4821.695962154385, 0.042, 0.89, 0.404, 192.0, 0.0, 0.0, 0.0, 0.0, 0.0, 0.0, 0.0, 0.0, 0.0, 1.657492310471227E9, 0.0, 2022-07-10 18:31:50.471
119.0, 22407.33324376741, 9325.818339087766, -28351.019722344845, -50402.6473048505, 70.2291810785748, 4025.5044729118913, -24318.228580740524, -4357.852561217852, 0.042, 0.89, 0.404, 192.0, 0.0, 0.0, 0.0, 0.0, 0.0, 0.0, 0.0, 0.0, 0.0, 1.657492310477709E9, 0.0, 2022-07-10 18:31:50.477
120.0, 25503.988624094563, 9321.303286707795, -28613.228036550052, -49751.45158188958, -512.749017804744, 9226.576593706202, -24862.381799504972, -3172.070166119357, 0.046, 0.9, 0.402, 192.0, 1.0, 112.0, 28.0, 32.0, 12.0, 144.0, 0.0, 0.0, 0.0, 1.657492310477743E9, 0.0, 2022-07-10 18:31:50.477
121.0, 27648.57144934791, 9087.615798427558, -29045.46607082678, -50518.04936147325, -838.056306607283, 13219.894554602452, -25199.28964367982, -3542.5056269771612, 0.046, 0.9, 0.402, 192.0, 0.0, 0.0, 0.0, 0.0, 0.0, 0.0, 0.0, 0.0, 0.0, 1.657492310484536E9, 0.0, 2022-07-10 18:31:50.484
122.0, 24901.542055790673, 9073.288330231706, -28831.001082778108, -51199.732863871206, -308.3199630165056, 8637.51872033104, -24704.019690039124, -4698.582553694553, 0.046, 0.9, 0.402, 192.0, 0.0, 0.0, 0.0, 0.0, 0.0, 0.0, 0.0, 0.0, 0.0, 1.657492310484565E9, 0.0, 2022-07-10 18:31:50.484
123.0, 22360.66280134473, 9311.669684847557, -28386.62605126215, -50586.06571985075, 86.88123069777855, 3985.159574170062, -24309.33258644731, -4550.256377489135, 0.046, 0.9, 0.402, 192.0, 0.0, 0.0, 0.0, 0.0, 0.0, 0.0, 0.0, 0.0, 0.0, 1.657492310492363E9, 0.0, 2022-07-10 18:31:50.492
124.0, 24792.510246337682, 9377.204999590516, -28519.529523793404, -49748.74702081049, -391.4684523902479, 7965.066488393127, -24742.57644922453, -3303.0513886274566, 0.046, 0.9, 0.402, 192.0, 0.0, 0.0, 0.0, 0.0, 0.0, 0.0, 0.0, 0.0, 0.0, 1.65749231049241E9, 0.0, 2022-07-10 18:31:50.492
125.0, 27657.735664574586, 9133.28041234975, -29008.138657586416, -50314.08969331857, -854.2613213373807, 13158.896643983919, -25216.5004869104, -3340.6693745457383, 0.046, 0.9, 0.402, 192.0, 0.0, 0.0, 0.0, 0.0, 0.0, 0.0, 0.0, 0.0, 0.0, 1.657492310500328E9, 0.0, 2022-07-10 18:31:50.500
126.0, 25596.122514739338, 9059.586710880603, -28910.729755250188, -51165.26647392112, -428.8629208639766, 9819.970705505695, -24831.983427045754, -4562.862761361928, 0.046, 0.9, 0.402, 192.0, 0.0, 0.0, 0.0, 0.0, 0.0, 0.0, 0.0, 0.0, 0.0, 1.657492310500349E9, 0.0, 2022-07-10 18:31:50.500
127.0, 22502.618730380385, 9280.198428654485, -28440.91843854409, -50764.36558537073, 73.35842530231778, 4270.434888653146, -24334.366540237254, -4735.708801234818, 0.046, 0.9, 0.402, 192.0, 0.0, 0.0, 0.0, 0.0, 0.0, 0.0, 0.0, 0.0, 0.0, 1.657492310507475E9, 0.0, 2022-07-10 18:31:50.507
128.0, 24111.3408340622, 9400.271999868393, -28449.054473525823, -49822.39601879073, -267.95271253022105, 6780.871067150959, -24631.085947881456, -3511.9507923067563, 0.046, 0.9, 0.402, 192.0, 0.0, 0.0, 0.0, 0.0, 0.0, 0.0, 0.0, 0.0, 0.0, 1.657492310515524E9, 0.0, 2022-07-10 18:31:50.515
129.0, 27491.215168382547, 9198.949837559443, -28939.429395130803, -50130.514816107134, -831.507245481878, 12778.469953354592, -25182.23526266042, -3178.619227244762, 0.046, 0.9, 0.402, 192.0, 0.0, 0.0, 0.0, 0.0, 0.0, 0.0, 0.0, 0.0, 0.0, 1.657492310515542E9, 0.0, 2022-07-10 18:31:50.515
130.0, 26251.073330768744, 9060.704298103368, -28979.46136945026, -51082.699129903216, -552.1551432794504, 10926.180890343296, -24946.04437900119, -4354.298633849458, 0.05, 0.902, 0.404, 192.0, 1.0, 144.0, 28.0, 48.0, 12.0, 160.0, 0.0, 0.0, 0.0, 1.65749231052349E9, 0.0, 2022-07-10 18:31:50.523
131.0, 22807.004786372756, 9249.509483517348, -28510.700584733557, -50923.53235763698, 32.2759189934634, 4846.4840467553195, -24369.034095887437, -4821.137168543001, 0.05, 0.902, 0.404, 192.0, 0.0, 0.0, 0.0, 0.0, 0.0, 0.0, 0.0, 0.0, 0.0, 1.657492310523528E9, 0.0, 2022-07-10 18:31:50.523
132.0, 23490.632890538323, 9435.207776452038, -28383.072123893755, -49930.82433114342, -143.16292323624174, 5709.395493196905, -24520.467164572143, -3751.9638242678434, 0.05, 0.902, 0.404, 192.0, 0.0, 0.0, 0.0, 0.0, 0.0, 0.0, 0.0, 0.0, 0.0, 1.65749231053007E9, 0.0, 2022-07-10 18:31:50.530
133.0, 27154.441434674434, 9263.345213335182, -28862.71820816019, -49974.209067131174, -780.4558611459568, 12118.44529133383, -25133.240238814386, -3160.357852024776, 0.05, 0.902, 0.404, 192.0, 0.0, 0.0, 0.0, 0.0, 0.0, 0.0, 0.0, 0.0, 0.0, 1.65749231053009E9, 0.0, 2022-07-10 18:31:50.530
134.0, 26830.430547050306, 9071.880170331022, -29019.31452981407, -50968.526419225505, -649.6087491045892, 11874.096020948413, -25030.377510831062, -4170.8578671047535, 0.05, 0.902, 0.404, 192.0, 0.0, 0.0, 0.0, 0.0, 0.0, 0.0, 0.0, 0.0, 0.0, 1.657492310543772E9, 0.0, 2022-07-10 18:31:50.543
135.0, 23263.807387805868, 9208.561087675225, -28594.340812485316, -51049.685603342725, -33.438209705139364, 5671.59869332298, -24444.851213079837, -4837.118665828546, 0.05, 0.902, 0.404, 192.0, 0.0, 0.0, 0.0, 0.0, 0.0, 0.0, 0.0, 0.0, 0.0, 1.657492310543792E9, 0.0, 2022-07-10 18:31:50.543
136.0, 22974.195834898455, 9422.400226879148, -28362.1955945725, -50089.566420265015, -51.72193666958054, 4863.314910330166, -24444.56064040192, -3934.644631701068, 0.05, 0.902, 0.404, 192.0, 0.0, 0.0, 0.0, 0.0, 0.0, 0.0, 0.0, 0.0, 0.0, 1.657492310551683E9, 0.0, 2022-07-10 18:31:50.551
137.0, 26658.009190322067, 9318.12933899514, -28768.237384347605, -49841.97614693358, -693.3958164925357, 11211.813832737666, -25012.920798411466, -3029.533091727864, 0.05, 0.902, 0.404, 192.0, 0.0, 0.0, 0.0, 0.0, 0.0, 0.0, 0.0, 0.0, 0.0, 1.657492310551712E9, 0.0, 2022-07-10 18:31:50.551
138.0, 27289.31186071776, 9092.063795574164, -29049.064701684085, -50817.07099879635, -735.9758896798957, 12628.802672481856, -25085.34045044666, -3889.0247212677864, 0.05, 0.902, 0.404, 192.0, 0.0, 0.0, 0.0, 0.0, 0.0, 0.0, 0.0, 0.0, 0.0, 1.657492310560113E9, 0.0, 2022-07-10 18:31:50.560
139.0, 23829.66415043642, 9179.816744305701, -28684.127769962284, -51147.69800277925, -120.23003342509669, 6687.3290166054985, -24520.80244073897, -4860.655052739984, 0.05, 0.902, 0.404, 192.0, 0.0, 0.0, 0.0, 0.0, 0.0, 0.0, 0.0, 0.0, 0.0, 1.657492310560133E9, 0.0, 2022-07-10 18:31:50.560
140.0, 22617.931380025315, 9412.140776174161, -28346.66113217606, -50272.04606199814, 40.59076793083763, 4278.928551546162, -24334.76887163745, -4205.681884966121, 0.05, 0.898, 0.41000000000000003, 192.0, 1.0, 144.0, 28.0, 16.0, 12.0, 208.0, 0.0, 0.0, 0.0, 1.657492310566698E9, 0.0, 2022-07-10 18:31:50.566
141.0, 26038.552944487685, 9365.984423873953, -28669.845005255345, -49773.55745715588, -571.3776435110144, 10085.397670912465, -24909.901608216955, -3102.3550751632542, 0.05, 0.898, 0.41000000000000003, 192.0, 0.0, 0.0, 0.0, 0.0, 0.0, 0.0, 0.0, 0.0, 0.0, 1.657492310566719E9, 0.0, 2022-07-10 18:31:50.566
142.0, 27587.908814896207, 9123.736217467334, -29051.56809706308, -50647.95770024749, -796.1020822646716, 13080.710241879255, -25153.133291379607, -3692.754053205735, 0.05, 0.898, 0.41000000000000003, 192.0, 0.0, 0.0, 0.0, 0.0, 0.0, 0.0, 0.0, 0.0, 0.0, 1.657492310572995E9, 0.0, 2022-07-10 18:31:50.572
143.0, 24470.60042269235, 9146.7585142563, -28774.205300117173, -51197.67650338131, -223.87507246435553, 7813.745178430699, -24626.906171668314, -4814.14107252849, 0.05, 0.898, 0.41000000000000003, 192.0, 0.0, 0.0, 0.0, 0.0, 0.0, 0.0, 0.0, 0.0, 0.0, 1.657492310579054E9, 0.0, 2022-07-10 18:31:50.579
144.0, 22423.113575352858, 9390.23606660796, -28359.021646859845, -50458.92899738896, 81.00272190603279, 3984.0866904362074, -24318.250932484978, -4456.870789154862, 0.05, 0.898, 0.41000000000000003, 192.0, 0.0, 0.0, 0.0, 0.0, 0.0, 0.0, 0.0, 0.0, 0.0, 1.657492310579105E9, 0.0, 2022-07-10 18:31:50.579
145.0, 25345.7829768399, 9409.078587183785, -28575.163015742663, -49739.40399162817, -463.0163863916858, 8856.051725870577, -24817.030110005155, -3233.9844982605578, 0.05, 0.898, 0.41000000000000003, 192.0, 0.0, 0.0, 0.0, 0.0, 0.0, 0.0, 0.0, 0.0, 0.0, 1.657492310585392E9, 0.0, 2022-07-10 18:31:50.585
146.0, 27734.67036898975, 9164.997537731831, -29024.678948483343, -50446.166151304984, -834.636489705621, 13254.360944552534, -25194.819294788755, -3480.121908202399, 0.05, 0.898, 0.41000000000000003, 192.0, 0.0, 0.0, 0.0, 0.0, 0.0, 0.0, 0.0, 0.0, 0.0, 1.657492310585414E9, 0.0, 2022-07-10 18:31:50.585
147.0, 25176.84849224669, 9134.66622050598, -28857.37614123537, -51191.395663189374, -343.3898500668824, 9014.391483591973, -24745.772748681637, -4687.920771589372, 0.05, 0.898, 0.41000000000000003, 192.0, 0.0, 0.0, 0.0, 0.0, 0.0, 0.0, 0.0, 0.0, 0.0, 1.657492310591597E9, 0.0, 2022-07-10 18:31:50.591
