%OpenBCI Raw EEG Data
%Number of channels = 8
%Sample Rate = 250 Hz
%Board = OpenBCI_GUI$BoardCytonSerial
Sample Index, EXG Channel 0, EXG Channel 1, EXG Channel 2, EXG Channel 3, EXG Channel 4, EXG Channel 5, EXG Channel 6, EXG Channel 7, Accel Channel 0, Accel Channel 1, Accel Channel 2, Other, Other, Other, Other, Other, Other, Other, Analog Channel 0, Analog Channel 1, Analog Channel 2, Timestamp, Other, Timestamp (Formatted)
219.0, 35935.54776138637, 31061.05697882855, -10804.050958639498, -35401.698696815816, 12678.8929318062, 21680.72273501429, -11308.70864495142, 14155.627984479426, 0.0, 0.0, 0.0, 192.0, 0.0, 0.0, 0.0, 0.0, 0.0, 0.0, 0.0, 0.0, 0.0, 1.657492836582856E9, 0.0, 2022-07-10 18:40:36.582
220.0, 44600.290906463975, 31806.040621523935, -11433.721951689953, -36099.27428952149, 12027.496043145185, 26129.725710120885, -11954.741114943161, 14630.244926243417, 0.0, 0.0, 0.0, 192.0, 0.0, 0.0, 0.0, 0.0, 0.0, 0.0, 0.0, 0.0, 0.0, 1.657492836582887E9, 0.0, 2022-07-10 18:40:36.582
221.0, 39209.18425431064, 30536.953274840507, -11716.69503649414, -38491.112111939445, 12384.565160818716, 17938.54897481787, -11569.307633555847, 11445.45661752899, 0.0, 0.0, 0.0, 192.0, 0.0, 0.0, 0.0, 0.0, 0.0, 0.0, 0.0, 0.0, 0.0, 1.657492836582895E9, 0.0, 2022-07-10 18:40:36.582
222.0, 29886.271642002066, 29623.23631325201, -11166.97623336032, -38219.96309995212, 13070.92017780783, 12324.774244400769, -10852.174264451774, 10476.21792271351, 0.0, 0.0, 0.0, 192.0, 0.0, 0.0, 0.0, 0.0, 0.0, 0.0, 0.0, 0.0, 0.0, 1.657492836582902E9, 0.0, 2022-07-10 18:40:36.582
0.0, 0.0, 0.0, 0.0, 0.0, 0.0, 0.0, 0.0, 0.0, 0.046, 0.934, 0.276, 192.0, 1.0, 112.0, 29.0, 48.0, 8.0, 160.0, 0.0, 0.0, 0.0, 1.657492836654605E9, 0.0, 2022-07-10 18:40:36.654
1.0, 32475.98945808285, 31574.096569311212, -10401.071357854767, -36058.88468729075, 13060.794837569576, 14659.928042880065, -10681.406936813228, 10713.995780229066, 0.046, 0.934, 0.276, 192.0, 0.0, 0.0, 0.0, 0.0, 0.0, 0.0, 0.0, 0.0, 0.0, 1.657492836669582E9, 0.0, 2022-07-10 18:40:36.669
2.0, 43749.98584389518, 33244.30832198958, -10571.056374437378, -34918.543388669896, 12441.673867902025, 23205.11170686623, -11351.825160005708, 12937.212042476183, 0.046, 0.934, 0.276, 192.0, 0.0, 0.0, 0.0, 0.0, 0.0, 0.0, 0.0, 0.0, 0.0, 1.657492836676712E9, 0.0, 2022-07-10 18:40:36.676
3.0, 44576.53100210798, 32637.950198406008, -11193.552457517679, -37248.198658013185, 12324.148395556022, 19459.80870244607, -11428.938678376519, 10923.565736242026, 0.046, 0.934, 0.276, 192.0, 0.0, 0.0, 0.0, 0.0, 0.0, 0.0, 0.0, 0.0, 0.0, 1.657492836676731E9, 0.0, 2022-07-10 18:40:36.676
4.0, 33882.137701766216, 30969.54893702852, -11104.927790752386, -38593.01371491119, 12896.710681523167, 10833.465854342683, -10810.75648197609, 8546.614175631306, 0.046, 0.934, 0.276, 192.0, 0.0, 0.0, 0.0, 0.0, 0.0, 0.0, 0.0, 0.0, 0.0, 1.657492836683392E9, 0.0, 2022-07-10 18:40:36.683
5.0, 31136.292950665113, 31260.546298092166, -10481.448230916052, -36586.385856436, 13114.751948684687, 12943.291716968026, -10612.116529001776, 10083.296606933667, 0.046, 0.934, 0.276, 192.0, 0.0, 0.0, 0.0, 0.0, 0.0, 0.0, 0.0, 0.0, 0.0, 1.657492836683421E9, 0.0, 2022-07-10 18:40:36.683
6.0, 41730.013993980174, 33036.951188677696, -10469.44534414355, -34831.41628878311, 12550.593918632738, 22208.53682858191, -11235.819606282665, 12800.084090242874, 0.046, 0.934, 0.276, 192.0, 0.0, 0.0, 0.0, 0.0, 0.0, 0.0, 0.0, 0.0, 0.0, 1.657492836692073E9, 0.0, 2022-07-10 18:40:36.692
7.0, 45768.05779553149, 32963.391597675276, -11093.215476657806, -36663.052339917704, 12282.216522957866, 21145.107882631768, -11493.959902997007, 11548.09582806776, 0.046, 0.934, 0.276, 192.0, 0.0, 0.0, 0.0, 0.0, 0.0, 0.0, 0.0, 0.0, 0.0, 1.657492836692114E9, 0.0, 2022-07-10 18:40:36.692
8.0, 38501.19274868879, 31648.103195202733, -11077.725717750278, -37990.12011171819, 12715.929772368643, 13843.17294873869, -11019.521775188658, 9386.078642139273, 0.064, 0.9580000000000001, 0.23800000000000002, 192.0, 2.0, 0.0, 29.0, 240.0, 7.0, 112.0, 0.0, 0.0, 0.0, 1.657492836700144E9, 0.0, 2022-07-10 18:40:36.700
9.0, 36450.50960189219, 31745.71326323906, -10704.272771391008, -36840.81576357076, 12881.891474949298, 14496.805011845234, -10867.619319870391, 10176.548084801208, 0.064, 0.9580000000000001, 0.23800000000000002, 192.0, 0.0, 0.0, 0.0, 0.0, 0.0, 0.0, 0.0, 0.0, 0.0, 1.657492836700221E9, 0.0, 2022-07-10 18:40:36.700
10.0, 37755.51620191529, 31986.441551022715, -10718.957867498144, -36403.74975249168, 12732.537118498936, 17311.314321913043, -11026.696685158811, 11041.046505099119, 0.064, 0.9580000000000001, 0.23800000000000002, 192.0, 0.0, 0.0, 0.0, 0.0, 0.0, 0.0, 0.0, 0.0, 0.0, 1.657492836706579E9, 0.0, 2022-07-10 18:40:36.706
11.0, 38305.88320563832, 32010.20145537871, -10837.28800264454, -36677.06688369118, 12648.36044888025, 17647.573965498683, -11125.379636928992, 10916.167308827318, 0.064, 0.9580000000000001, 0.23800000000000002, 192.0, 0.0, 0.0, 0.0, 0.0, 0.0, 0.0, 0.0, 0.0, 0.0, 1.657492836706607E9, 0.0, 2022-07-10 18:40:36.706
12.0, 37876.908526052066, 32017.82340023797, -10865.138276235852, -37018.91446339065, 12714.074577578853, 16007.559419579438, -11070.170828124385, 10346.935432784014, 0.064, 0.9580000000000001, 0.23800000000000002, 192.0, 0.0, 0.0, 0.0, 0.0, 0.0, 0.0, 0.0, 0.0, 0.0, 1.657492836714033E9, 0.0, 2022-07-10 18:40:36.714
13.0, 37583.43012135388, 32056.223697212186, -10772.46794372415, -36857.02077830086, 12796.217238452105, 15562.826760152193, -10983.84839103799, 10353.842121820704, 0.064, 0.9580000000000001, 0.23800000000000002, 192.0, 0.0, 0.0, 0.0, 0.0, 0.0, 0.0, 0.0, 0.0, 0.0, 1.657492836714081E9, 0.0, 2022-07-10 18:40:36.714
14.0, 38114.48521786752, 32068.114825262408, -10736.414579917739, -36476.683494649355, 12730.190185331128, 17200.74024209264, -11019.968810077764, 10952.913576711844, 0.064, 0.9580000000000001, 0.23800000000000002, 192.0, 0.0, 0.0, 0.0, 0.0, 0.0, 0.0, 0.0, 0.0, 0.0, 1.657492836722191E9, 0.0, 2022-07-10 18:40:36.722
15.0, 38535.368565960955, 32043.550258106025, -10825.553336805504, -36609.47520845833, 12650.662678559147, 17817.581333825747, -11092.701386535333, 11029.155377048895, 0.064, 0.9580000000000001, 0.23800000000000002, 192.0, 0.0, 0.0, 0.0, 0.0, 0.0, 0.0, 0.0, 0.0, 0.0, 1.657492836722236E9, 0.0, 2022-07-10 18:40:36.722
16.0, 38133.77477333245, 32033.91665624579, -10875.375375196383, -36978.10017801526, 12698.785984371423, 16308.70447262579, -11080.363223596005, 10451.318079390297, 0.064, 0.9580000000000001, 0.23800000000000002, 192.0, 0.0, 0.0, 0.0, 0.0, 0.0, 0.0, 0.0, 0.0, 0.0, 1.657492836728978E9, 0.0, 2022-07-10 18:40:36.728
17.0, 37723.732021299846, 32060.671694358793, -10803.961551661678, -36911.58138651626, 12770.043345694941, 15485.668538292473, -11038.677220186857, 10292.330121079698, 0.064, 0.9580000000000001, 0.23800000000000002, 192.0, 0.0, 0.0, 0.0, 0.0, 0.0, 0.0, 0.0, 0.0, 0.0, 1.657492836736396E9, 0.0, 2022-07-10 18:40:36.736
18.0, 38062.33859805329, 32066.05846477252, -10743.254213721064, -36534.97684418879, 12737.186281345641, 16848.789673899373, -11034.072760829064, 10837.62327881137, 0.06, 0.974, 0.226, 192.0, 1.0, 224.0, 30.0, 112.0, 7.0, 16.0, 0.0, 0.0, 0.0, 1.657492836736448E9, 0.0, 2022-07-10 18:40:36.736
19.0, 38510.60283310447, 32039.05755747051, -10803.872144683855, -36557.19447817737, 12660.989184497499, 17847.376209184673, -11097.462308104314, 11072.361299081005, 0.06, 0.974, 0.226, 192.0, 0.0, 0.0, 0.0, 0.0, 0.0, 0.0, 0.0, 0.0, 0.0, 1.657492836744055E9, 0.0, 2022-07-10 18:40:36.744
20.0, 38218.689050518165, 32033.80489752351, -10865.451200658226, -36933.30728212682, 12691.61107440127, 16599.90299938953, -11105.039549474663, 10548.458760793063, 0.06, 0.974, 0.226, 192.0, 0.0, 0.0, 0.0, 0.0, 0.0, 0.0, 0.0, 0.0, 0.0, 1.657492836744101E9, 0.0, 2022-07-10 18:40:36.744
21.0, 37765.19450726444, 32063.130386248875, -10809.974170920155, -36964.80089006435, 12780.01222372201, 15475.163218398478, -11001.260399968673, 10273.398193526053, 0.06, 0.974, 0.226, 192.0, 0.0, 0.0, 0.0, 0.0, 0.0, 0.0, 0.0, 0.0, 0.0, 1.657492836751825E9, 0.0, 2022-07-10 18:40:36.751
22.0, 37955.31844560128, 32065.90200256133, -10740.393190430785, -36605.317783989645, 12766.444714837637, 16507.07620466664, -10981.724975314733, 10747.255175978564, 0.06, 0.974, 0.226, 192.0, 0.0, 0.0, 0.0, 0.0, 0.0, 0.0, 0.0, 0.0, 0.0, 1.657492836751859E9, 0.0, 2022-07-10 18:40:36.751
23.0, 38412.65748890132, 32024.595978807927, -10799.357092303884, -36536.40735583393, 12664.096076976786, 17787.495885788907, -11079.849133473532, 11075.311729349105, 0.06, 0.974, 0.226, 192.0, 0.0, 0.0, 0.0, 0.0, 0.0, 0.0, 0.0, 0.0, 0.0, 1.657492836758785E9, 0.0, 2022-07-10 18:40:36.758
24.0, 38254.09421373537, 32015.655281025804, -10873.363718195405, -36887.173281571064, 12668.588777612304, 16865.888758407684, -11087.404023099425, 10630.28849724394, 0.06, 0.974, 0.226, 192.0, 0.0, 0.0, 0.0, 0.0, 0.0, 0.0, 0.0, 0.0, 0.0, 1.657492836758825E9, 0.0, 2022-07-10 18:40:36.758
25.0, 37805.651164728544, 32056.067235001, -10826.670924028269, -36993.34406773378, 12764.410706092205, 15526.2146027344, -11001.863897068966, 10275.163981338022, 0.06, 0.974, 0.226, 192.0, 0.0, 0.0, 0.0, 0.0, 0.0, 0.0, 0.0, 0.0, 0.0, 1.65749283676634E9, 0.0, 2022-07-10 18:40:36.766
26.0, 37855.76377579734, 32070.72997936368, -10741.60018463137, -36662.24767711731, 12775.653633553224, 16191.8719043579, -10979.55685610257, 10630.444959455128, 0.06, 0.974, 0.226, 192.0, 0.0, 0.0, 0.0, 0.0, 0.0, 0.0, 0.0, 0.0, 0.0, 1.657492836766379E9, 0.0, 2022-07-10 18:40:36.766
27.0, 38303.893900381794, 32030.116859688387, -10777.497086226593, -36494.49783498023, 12675.048431759888, 17681.325099626196, -11063.755877465712, 11075.825819471576, 0.06, 0.974, 0.226, 192.0, 0.0, 0.0, 0.0, 0.0, 0.0, 0.0, 0.0, 0.0, 0.0, 1.65749283677462E9, 0.0, 2022-07-10 18:40:36.774
28.0, 38254.6306556023, 32014.023603680565, -10863.39484016834, -36810.48444634491, 12657.055277473364, 17134.31085757147, -11104.167831440906, 10746.249347478075, 0.062, 0.966, 0.222, 192.0, 1.0, 240.0, 30.0, 48.0, 6.0, 240.0, 0.0, 0.0, 0.0, 1.657492836774808E9, 0.0, 2022-07-10 18:40:36.774
29.0, 37830.79687724076, 32053.608543110913, -10844.820540525978, -36997.166216035635, 12740.673153480668, 15671.657403905083, -11035.547975963114, 10287.077461132702, 0.062, 0.966, 0.222, 192.0, 0.0, 0.0, 0.0, 0.0, 0.0, 0.0, 0.0, 0.0, 0.0, 1.657492836782314E9, 0.0, 2022-07-10 18:40:36.782
30.0, 37779.83489988266, 32078.88836608987, -10756.039411549498, -36730.46520119491, 12786.740098803057, 15926.19906976212, -10977.858123523965, 10511.913658608635, 0.062, 0.966, 0.222, 192.0, 0.0, 0.0, 0.0, 0.0, 0.0, 0.0, 0.0, 0.0, 0.0, 1.657492836782393E9, 0.0, 2022-07-10 18:40:36.782
31.0, 38166.69889291512, 32028.9098654878, -10765.65066166528, -36495.011925102706, 12710.788871143923, 17467.731829611283, -11044.913356889887, 11019.924106588855, 0.062, 0.966, 0.222, 192.0, 0.0, 0.0, 0.0, 0.0, 0.0, 0.0, 0.0, 0.0, 0.0, 1.657492836788669E9, 0.0, 2022-07-10 18:40:36.788
32.0, 38227.71915527811, 31997.729181972645, -10848.530930105559, -36740.299968755244, 12667.426486900627, 17346.451264196785, -11105.933619252875, 10831.185976408242, 0.062, 0.966, 0.222, 192.0, 0.0, 0.0, 0.0, 0.0, 0.0, 0.0, 0.0, 0.0, 0.0, 1.657492836795926E9, 0.0, 2022-07-10 18:40:36.795
33.0, 37860.614104344146, 32044.645493584336, -10851.257842929106, -36986.01269555243, 12738.326220312862, 15851.164263625655, -11044.37691502296, 10314.301885879266, 0.062, 0.966, 0.222, 192.0, 0.0, 0.0, 0.0, 0.0, 0.0, 0.0, 0.0, 0.0, 0.0, 1.657492836795946E9, 0.0, 2022-07-10 18:40:36.795
34.0, 37731.66689058148, 32082.35288648044, -10774.300786769485, -36790.45728331295, 12785.33193890237, 15712.181116602555, -10989.056347496075, 10416.225840595465, 0.062, 0.966, 0.222, 192.0, 0.0, 0.0, 0.0, 0.0, 0.0, 0.0, 0.0, 0.0, 0.0, 1.657492836804044E9, 0.0, 2022-07-10 18:40:36.804
35.0, 38066.16074635515, 32036.48710685815, -10757.536978428005, -36495.39190475844, 12724.691656195124, 17229.149309295335, -11028.283659015138, 10971.420821120837, 0.062, 0.966, 0.222, 192.0, 0.0, 0.0, 0.0, 0.0, 0.0, 0.0, 0.0, 0.0, 0.0, 1.657492836804079E9, 0.0, 2022-07-10 18:40:36.804
36.0, 38201.768779965496, 31990.91189991378, -10849.424999883771, -36672.46242433339, 12658.664603074147, 17503.338158528586, -11109.800471043643, 10912.412215758826, 0.062, 0.966, 0.222, 192.0, 0.0, 0.0, 0.0, 0.0, 0.0, 0.0, 0.0, 0.0, 0.0, 1.657492836812287E9, 0.0, 2022-07-10 18:40:36.812
37.0, 37891.88419483712, 32037.448231869726, -10865.473552402682, -36954.98847424847, 12724.08815909483, 16073.519417467049, -11043.57225222257, 10391.549514716806, 0.054, 0.974, 0.222, 192.0, 1.0, 176.0, 30.0, 112.0, 6.0, 240.0, 0.0, 0.0, 0.0, 1.657492836812348E9, 0.0, 2022-07-10 18:40:36.812
38.0, 37713.27140489476, 32089.483092961684, -10785.722528186147, -36835.63015885713, 12795.993721007553, 15572.438010267975, -10978.819248535545, 10351.137560741612, 0.054, 0.974, 0.222, 192.0, 0.0, 0.0, 0.0, 0.0, 0.0, 0.0, 0.0, 0.0, 0.0, 1.657492836818913E9, 0.0, 2022-07-10 18:40:36.818
39.0, 37968.59538180773, 32051.52983087657, -10746.472864922627, -36522.370460316, 12750.150293129718, 16934.978000519037, -11006.401301193393, 10877.7670118531, 0.054, 0.974, 0.222, 192.0, 0.0, 0.0, 0.0, 0.0, 0.0, 0.0, 0.0, 0.0, 0.0, 1.657492836818936E9, 0.0, 2022-07-10 18:40:36.818
40.0, 38155.634779409746, 32003.18300761974, -10814.824499466957, -36607.93293809092, 12687.118373765752, 17587.023089769256, -11057.117409362485, 10986.351786416983, 0.054, 0.974, 0.222, 192.0, 0.0, 0.0, 0.0, 0.0, 0.0, 0.0, 0.0, 0.0, 0.0, 1.657492836826945E9, 0.0, 2022-07-10 18:40:36.826
41.0, 37919.15332307259, 32043.170278450285, -10855.10234297542, -36911.49197953844, 12727.776196929955, 16327.94932460181, -11050.121313347974, 10484.018681528412, 0.054, 0.974, 0.222, 192.0, 0.0, 0.0, 0.0, 0.0, 0.0, 0.0, 0.0, 0.0, 0.0, 1.65749283682698E9, 0.0, 2022-07-10 18:40:36.826
42.0, 37707.012916447275, 32101.35186926745, -10795.020853879554, -36876.44444423252, 12804.174459478196, 15506.835640291649, -10966.905768740866, 10311.150289911067, 0.054, 0.974, 0.222, 192.0, 0.0, 0.0, 0.0, 0.0, 0.0, 0.0, 0.0, 0.0, 0.0, 1.657492836834792E9, 0.0, 2022-07-10 18:40:36.834
43.0, 37894.164072771564, 32069.143005507354, -10737.129835740308, -36550.53365832969, 12780.414555122205, 16640.225546386904, -10971.957262987766, 10796.585475991425, 0.054, 0.974, 0.222, 192.0, 0.0, 0.0, 0.0, 0.0, 0.0, 0.0, 0.0, 0.0, 0.0, 1.657492836834937E9, 0.0, 2022-07-10 18:40:36.834
44.0, 38110.12662769874, 31998.310327328483, -10799.222981837152, -36555.406338620945, 12698.137783782218, 17614.20281102691, -11056.312746562095, 11018.918278088366, 0.054, 0.974, 0.222, 192.0, 0.0, 0.0, 0.0, 0.0, 0.0, 0.0, 0.0, 0.0, 0.0, 1.657492836841744E9, 0.0, 2022-07-10 18:40:36.841
45.0, 37940.56629426078, 32019.25391188311, -10861.9643285232, -36863.81570861527, 12705.782080385934, 16601.24410405685, -11060.179598352863, 10575.638482050716, 0.054, 0.974, 0.222, 192.0, 0.0, 0.0, 0.0, 0.0, 0.0, 0.0, 0.0, 0.0, 0.0, 1.657492836841822E9, 0.0, 2022-07-10 18:40:36.841
46.0, 37717.026497963256, 32093.707572663734, -10806.934333674233, -36908.787418459346, 12794.540857617958, 15520.760777087306, -10976.65112932338, 10284.84228668717, 0.054, 0.974, 0.222, 192.0, 0.0, 0.0, 0.0, 0.0, 0.0, 0.0, 0.0, 0.0, 0.0, 1.657492836848297E9, 0.0, 2022-07-10 18:40:36.848
47.0, 37828.69581326197, 32080.363581223915, -10736.705152595658, -36597.897004830484, 12796.48545938557, 16335.7053799278, -10967.866893752444, 10668.644090729249, 0.064, 0.966, 0.214, 192.0, 2.0, 0.0, 30.0, 48.0, 6.0, 176.0, 0.0, 0.0, 0.0, 1.657492836856388E9, 0.0, 2022-07-10 18:40:36.856
48.0, 38043.29491177737, 31995.60576624939, -10783.08502234042, -36509.65231772093, 12709.51482170997, 17546.47702532733, -11047.439104013338, 11011.050464040098, 0.064, 0.966, 0.214, 192.0, 0.0, 0.0, 0.0, 0.0, 0.0, 0.0, 0.0, 0.0, 0.0, 1.65749283685642E9, 0.0, 2022-07-10 18:40:36.856
49.0, 37929.79275343332, 31999.025583151055, -10852.19661619623, -36801.1861206515, 12700.551772183391, 16829.142490523158, -11079.245636373238, 10656.998831868033, 0.064, 0.966, 0.214, 192.0, 0.0, 0.0, 0.0, 0.0, 0.0, 0.0, 0.0, 0.0, 0.0, 1.6574928368646E9, 0.0, 2022-07-10 18:40:36.864
50.0, 37695.56882328616, 32085.348020237452, -10807.247258096608, -36907.64747949213, 12793.780898306477, 15581.713984216927, -10971.21965542074, 10290.765498967827, 0.064, 0.966, 0.214, 192.0, 0.0, 0.0, 0.0, 0.0, 0.0, 0.0, 0.0, 0.0, 0.0, 1.657492836864623E9, 0.0, 2022-07-10 18:40:36.864
51.0, 37735.5560941167, 32085.59388942646, -10736.280469451007, -36645.46151703138, 12810.455299670137, 16042.539899651993, -10945.895128952878, 10566.876598224235, 0.064, 0.966, 0.214, 192.0, 0.0, 0.0, 0.0, 0.0, 0.0, 0.0, 0.0, 0.0, 0.0, 1.657492836871561E9, 0.0, 2022-07-10 18:40:36.871
52.0, 37946.02011990787, 31986.933289400735, -10771.596225690393, -36494.20726230231, 12708.710158909578, 17392.764078708184, -11043.818121411578, 10987.089393984008, 0.064, 0.966, 0.214, 192.0, 0.0, 0.0, 0.0, 0.0, 0.0, 0.0, 0.0, 0.0, 0.0, 1.657492836871625E9, 0.0, 2022-07-10 18:40:36.871
53.0, 37894.789921616306, 31973.008152605078, -10854.945880764233, -36755.61091370713, 12674.17671372613, 17028.140071408758, -11108.571125098602, 10720.92482101021, 0.064, 0.966, 0.214, 192.0, 0.0, 0.0, 0.0, 0.0, 0.0, 0.0, 0.0, 0.0, 0.0, 1.65749283687886E9, 0.0, 2022-07-10 18:40:36.878
54.0, 37676.30161956568, 32064.7173601052, -10834.494034587626, -36927.89815996864, 12759.448618823126, 15674.183151028534, -11024.439158968826, 10270.783039424783, 0.064, 0.966, 0.214, 192.0, 0.0, 0.0, 0.0, 0.0, 0.0, 0.0, 0.0, 0.0, 0.0, 1.65749283687888E9, 0.0, 2022-07-10 18:40:36.878
55.0, 37683.34241906911, 32087.337325493972, -10765.27068200954, -36710.19216897395, 12790.070508726896, 15792.580341408295, -10995.94068478831, 10436.118893160688, 0.064, 0.966, 0.214, 192.0, 0.0, 0.0, 0.0, 0.0, 0.0, 0.0, 0.0, 0.0, 0.0, 1.657492836886857E9, 0.0, 2022-07-10 18:40:36.886
56.0, 37886.743293612395, 32009.419144322772, -10754.184216759708, -36484.9089366089, 12727.887955652233, 17196.269893201577, -11028.931859604343, 10931.388846801383, 0.064, 0.966, 0.214, 192.0, 0.0, 0.0, 0.0, 0.0, 0.0, 0.0, 0.0, 0.0, 0.0, 1.657492836886878E9, 0.0, 2022-07-10 18:40:36.886
57.0, 37887.12327326814, 31978.774902674548, -10830.113092674386, -36669.64610453202, 12681.776306840935, 17222.957876081215, -11073.52358979268, 10819.540717547026, 0.078, 0.976, 0.20400000000000001, 192.0, 2.0, 112.0, 30.0, 128.0, 6.0, 96.0, 0.0, 0.0, 0.0, 1.657492836894442E9, 0.0, 2022-07-10 18:40:36.894
58.0, 37688.70683773838, 32063.979752538176, -10836.371581121872, -36896.67277296457, 12746.819883205877, 15872.465476091562, -11028.797749137611, 10330.484548864908, 0.078, 0.976, 0.20400000000000001, 192.0, 0.0, 0.0, 0.0, 0.0, 0.0, 0.0, 0.0, 0.0, 0.0, 1.657492836894505E9, 0.0, 2022-07-10 18:40:36.894
59.0, 37648.093718063086, 32108.191503070775, -10762.70023139718, -36741.775183889295, 12795.09965122934, 15628.160909195056, -10982.574341604035, 10362.447543435997, 0.078, 0.976, 0.20400000000000001, 192.0, 0.0, 0.0, 0.0, 0.0, 0.0, 0.0, 0.0, 0.0, 0.0, 1.657492836901555E9, 0.0, 2022-07-10 18:40:36.901
60.0, 37830.685118518486, 32025.311234630495, -10745.869367822334, -36489.625154688976, 12736.381618545249, 16974.54058820493, -11039.548938220614, 10862.67958434577, 0.078, 0.976, 0.20400000000000001, 192.0, 0.0, 0.0, 0.0, 0.0, 0.0, 0.0, 0.0, 0.0, 0.0, 1.657492836901577E9, 0.0, 2022-07-10 18:40:36.901
61.0, 37874.87451730663, 31970.862385137367, -10819.71953150267, -36626.06020284417, 12674.444934659594, 17360.219938781254, -11100.591552328056, 10882.572636910993, 0.078, 0.976, 0.20400000000000001, 192.0, 0.0, 0.0, 0.0, 0.0, 0.0, 0.0, 0.0, 0.0, 0.0, 1.657492836908806E9, 0.0, 2022-07-10 18:40:36.908
62.0, 37694.67475350795, 32043.930237761768, -10842.875938758367, -36894.92933689706, 12724.445787006116, 16085.90228389529, -11085.168848653895, 10384.799287891305, 0.078, 0.976, 0.20400000000000001, 192.0, 0.0, 0.0, 0.0, 0.0, 0.0, 0.0, 0.0, 0.0, 0.0, 1.657492836908851E9, 0.0, 2022-07-10 18:40:36.908
63.0, 37634.794430112175, 32119.434430531794, -10773.9431588582, -36802.01313519635, 12795.524334373991, 15525.409939934008, -11008.457661683282, 10302.790737484782, 0.078, 0.976, 0.20400000000000001, 192.0, 0.0, 0.0, 0.0, 0.0, 0.0, 0.0, 0.0, 0.0, 0.0, 1.657492836916583E9, 0.0, 2022-07-10 18:40:36.916
64.0, 37781.57833595018, 32057.765967579602, -10732.681838593702, -36518.25773933622, 12767.115267171297, 16705.93967508551, -11019.94645833331, 10784.627292707837, 0.078, 0.976, 0.20400000000000001, 192.0, 0.0, 0.0, 0.0, 0.0, 0.0, 0.0, 0.0, 0.0, 0.0, 1.657492836923639E9, 0.0, 2022-07-10 18:40:36.923
65.0, 37845.32551113672, 31981.27829805354, -10798.351263803395, -36580.39558892198, 12695.924961081144, 17409.34907309402, -11095.540058081158, 10920.525898996104, 0.078, 0.976, 0.20400000000000001, 192.0, 0.0, 0.0, 0.0, 0.0, 0.0, 0.0, 0.0, 0.0, 0.0, 1.657492836923671E9, 0.0, 2022-07-10 18:40:36.923
66.0, 37702.56491930067, 32036.822383024977, -10841.28896490204, -36855.456156188986, 12719.528403225948, 16330.47507172526, -11095.450651103336, 10471.92638777809, 0.078, 0.976, 0.20400000000000001, 192.0, 0.0, 0.0, 0.0, 0.0, 0.0, 0.0, 0.0, 0.0, 0.0, 1.657492836932084E9, 0.0, 2022-07-10 18:40:36.932
67.0, 37632.559255666645, 32125.894084679378, -10779.821667649945, -36846.82838282924, 12799.972331520597, 15491.010605217292, -11021.667542656367, 10262.937577120969, 0.076, 1.004, 0.188, 192.0, 2.0, 96.0, 31.0, 96.0, 5.0, 224.0, 0.0, 0.0, 0.0, 1.657492836932109E9, 0.0, 2022-07-10 18:40:36.932
68.0, 37748.16247798949, 32079.760084123624, -10728.390303658283, -36571.79016730668, 12789.8693430268, 16421.558430380635, -11010.111690772974, 10676.847180944345, 0.076, 1.004, 0.188, 192.0, 0.0, 0.0, 0.0, 0.0, 0.0, 0.0, 0.0, 0.0, 0.0, 1.657492836939411E9, 0.0, 2022-07-10 18:40:36.939
69.0, 37822.12440039211, 31983.91580389927, -10779.374632760839, -36551.695949041365, 12712.822879889356, 17395.96037816529, -11069.835551957554, 10952.466541822738, 0.076, 1.004, 0.188, 192.0, 0.0, 0.0, 0.0, 0.0, 0.0, 0.0, 0.0, 0.0, 0.0, 1.657492836939463E9, 0.0, 2022-07-10 18:40:36.939
70.0, 37707.66111703648, 32020.080926427952, -10836.438636355238, -36829.08109773172, 12719.349589270305, 16559.915728558986, -11094.891857491953, 10571.90574072668, 0.076, 1.004, 0.188, 192.0, 0.0, 0.0, 0.0, 0.0, 0.0, 0.0, 0.0, 0.0, 0.0, 1.657492836947154E9, 0.0, 2022-07-10 18:40:36.947
71.0, 37625.78667709669, 32125.1341253679, -10794.23854282362, -36885.96628737048, 12798.407709408726, 15530.081454525169, -11029.535356704637, 10300.80143222826, 0.076, 1.004, 0.188, 192.0, 0.0, 0.0, 0.0, 0.0, 0.0, 0.0, 0.0, 0.0, 0.0, 1.657492836947178E9, 0.0, 2022-07-10 18:40:36.947
72.0, 37713.49492233931, 32114.606453729448, -10736.302821195462, -36630.17292382395, 12799.592351864858, 16175.644537883347, -11020.214679266774, 10622.53244191795, 0.076, 1.004, 0.188, 192.0, 0.0, 0.0, 0.0, 0.0, 0.0, 0.0, 0.0, 0.0, 0.0, 1.657492836954247E9, 0.0, 2022-07-10 18:40:36.954
73.0, 37808.40042929655, 32007.76511523308, -10784.314368285462, -36540.162448902425, 12703.859830362777, 17353.179139277832, -11105.307770408126, 10968.850370508477, 0.076, 1.004, 0.188, 192.0, 0.0, 0.0, 0.0, 0.0, 0.0, 0.0, 0.0, 0.0, 0.0, 1.657492836954307E9, 0.0, 2022-07-10 18:40:36.954
74.0, 37730.772820803264, 32018.38219384935, -10855.415267397793, -36804.47182708643, 12686.157248754174, 16821.453490430533, -11134.990887044774, 10671.080430874877, 0.076, 1.004, 0.188, 192.0, 0.0, 0.0, 0.0, 0.0, 0.0, 0.0, 0.0, 0.0, 0.0, 1.657492836961715E9, 0.0, 2022-07-10 18:40:36.961
75.0, 37637.946026080375, 32132.040814404587, -10817.640819268325, -36927.317014612796, 12768.501075327526, 15649.484473405419, -11062.8618076875, 10294.922923436514, 0.076, 1.004, 0.188, 192.0, 0.0, 0.0, 0.0, 0.0, 0.0, 0.0, 0.0, 0.0, 0.0, 1.657492836961738E9, 0.0, 2022-07-10 18:40:36.961
76.0, 37698.16162564297, 32140.221552875228, -10743.835359076902, -36704.715991582394, 12799.301779186939, 15977.295157586952, -11024.595621180013, 10518.149795311665, 0.076, 1.004, 0.188, 192.0, 0.0, 0.0, 0.0, 0.0, 0.0, 0.0, 0.0, 0.0, 0.0, 1.657492836969653E9, 0.0, 2022-07-10 18:40:36.969
77.0, 37795.9728593794, 32029.558066077003, -10760.107429040365, -36540.83300123608, 12726.65860970719, 17252.484530506674, -11087.42637484388, 10939.368419571927, 0.058, 0.99, 0.194, 192.0, 1.0, 208.0, 30.0, 240.0, 6.0, 16.0, 0.0, 0.0, 0.0, 1.657492836969673E9, 0.0, 2022-07-10 18:40:36.969
78.0, 37725.92249225646, 32005.395830320816, -10837.824444511467, -36769.29018131378, 12691.588722656814, 17022.909763206215, -11134.63325913349, 10734.738199083591, 0.058, 0.99, 0.194, 192.0, 0.0, 0.0, 0.0, 0.0, 0.0, 0.0, 0.0, 0.0, 0.0, 1.657492836977112E9, 0.0, 2022-07-10 18:40:36.977
79.0, 37623.97618579581, 32109.800828671556, -10829.24137464063, -36952.485078869475, 12756.185264132651, 15772.083791742778, -11087.895761477443, 10299.70619674995, 0.058, 0.99, 0.194, 192.0, 0.0, 0.0, 0.0, 0.0, 0.0, 0.0, 0.0, 0.0, 0.0, 1.657492836983486E9, 0.0, 2022-07-10 18:40:36.983
80.0, 37677.17333759944, 32142.389672087393, -10755.815894104946, -36772.62059123762, 12799.34648267585, 15773.603710365738, -11031.122330560962, 10419.39978830812, 0.058, 0.99, 0.194, 192.0, 0.0, 0.0, 0.0, 0.0, 0.0, 0.0, 0.0, 0.0, 0.0, 1.657492836983509E9, 0.0, 2022-07-10 18:40:36.983
81.0, 37792.53069073328, 32034.25193241262, -10752.46313243665, -36550.80187926315, 12737.789778445933, 17070.72014459612, -11073.747107237234, 10893.279122505084, 0.058, 0.99, 0.194, 192.0, 0.0, 0.0, 0.0, 0.0, 0.0, 0.0, 0.0, 0.0, 0.0, 1.657492836991476E9, 0.0, 2022-07-10 18:40:36.991
82.0, 37744.47444015437, 31988.207338834687, -10826.894441472823, -36724.69845112544, 12693.913304080166, 17181.897721516816, -11125.223174717805, 10810.600019764903, 0.058, 0.99, 0.194, 192.0, 0.0, 0.0, 0.0, 0.0, 0.0, 0.0, 0.0, 0.0, 0.0, 1.657492836991507E9, 0.0, 2022-07-10 18:40:36.991
83.0, 37628.89356957598, 32086.24209001566, -10832.52708107556, -36940.526895585885, 12749.971479174075, 15951.97063111909, -11083.134839908462, 10368.638976650116, 0.058, 0.99, 0.194, 192.0, 0.0, 0.0, 0.0, 0.0, 0.0, 0.0, 0.0, 0.0, 0.0, 1.657492836999449E9, 0.0, 2022-07-10 18:40:36.999
84.0, 37658.26376179025, 32146.815317489545, -10771.819743134945, -36825.48246687442, 12797.58069486388, 15624.405816126564, -11043.28167954465, 10368.817790605759, 0.058, 0.99, 0.194, 192.0, 0.0, 0.0, 0.0, 0.0, 0.0, 0.0, 0.0, 0.0, 0.0, 1.657492836999469E9, 0.0, 2022-07-10 18:40:36.999
85.0, 37762.177021762975, 32053.027397755075, -10746.919899811734, -36575.65701909745, 12757.839293222343, 16816.871382817197, -11039.28071728715, 10831.901232230812, 0.058, 0.99, 0.194, 192.0, 0.0, 0.0, 0.0, 0.0, 0.0, 0.0, 0.0, 0.0, 0.0, 1.657492837006372E9, 0.0, 2022-07-10 18:40:37.006
86.0, 37730.66106208099, 31975.08686483942, -10816.14325238982, -36677.02218020227, 12699.076557049342, 17261.246414333156, -11102.24558141775, 10875.665947874302, 0.058, 0.99, 0.194, 192.0, 0.0, 0.0, 0.0, 0.0, 0.0, 0.0, 0.0, 0.0, 0.0, 1.657492837006422E9, 0.0, 2022-07-10 18:40:37.006
87.0, 37618.6788223599, 32052.82623205498, -10849.559110350503, -36925.12654365618, 12730.793682431422, 16136.350171130916, -11086.845229488043, 10429.011038423901, 0.042, 0.9400000000000001, 0.202, 192.0, 1.0, 80.0, 29.0, 96.0, 6.0, 80.0, 0.0, 0.0, 0.0, 1.657492837014078E9, 0.0, 2022-07-10 18:40:37.014
88.0, 37620.26579621623, 32133.49367779418, -10795.646702724303, -36871.3035430078, 12791.143392460752, 15517.989160774847, -11020.102920544496, 10309.920943966024, 0.042, 0.9400000000000001, 0.202, 192.0, 0.0, 0.0, 0.0, 0.0, 0.0, 0.0, 0.0, 0.0, 0.0, 1.657492837014102E9, 0.0, 2022-07-10 18:40:37.014
89.0, 37709.31514612617, 32066.48314791717, -10749.758571357557, -36603.01555431075, 12771.004470706519, 16547.063475497183, -11031.837586383532, 10740.84022531989, 0.042, 0.9400000000000001, 0.202, 192.0, 0.0, 0.0, 0.0, 0.0, 0.0, 0.0, 0.0, 0.0, 0.0, 1.657492837022095E9, 0.0, 2022-07-10 18:40:37.022
90.0, 37708.86811123706, 31968.180175802732, -10809.638894753325, -36625.9931476108, 12699.389481471717, 17306.933379999802, -11096.881162748476, 10927.857271177445, 0.042, 0.9400000000000001, 0.202, 192.0, 0.0, 0.0, 0.0, 0.0, 0.0, 0.0, 0.0, 0.0, 0.0, 1.657492837022181E9, 0.0, 2022-07-10 18:40:37.022
91.0, 37596.17061569341, 32020.840885739435, -10858.566863365992, -36895.7563514419, 12719.215478803573, 16353.273851069673, -11088.700424277833, 10515.22171678802, 0.042, 0.9400000000000001, 0.202, 192.0, 0.0, 0.0, 0.0, 0.0, 0.0, 0.0, 0.0, 0.0, 0.0, 1.657492837029056E9, 0.0, 2022-07-10 18:40:37.029
92.0, 37571.56134504811, 32115.992261885676, -10816.210307623185, -36913.77185747288, 12788.282369170473, 15483.031032446746, -11023.120406045962, 10287.233923343889, 0.042, 0.9400000000000001, 0.202, 192.0, 0.0, 0.0, 0.0, 0.0, 0.0, 0.0, 0.0, 0.0, 0.0, 1.657492837029077E9, 0.0, 2022-07-10 18:40:37.029
93.0, 37670.78073868522, 32074.373313709893, -10762.879045352824, -36646.78026995424, 12775.698337042135, 16290.063117750064, -11020.125272288951, 10651.142674820743, 0.042, 0.9400000000000001, 0.202, 192.0, 0.0, 0.0, 0.0, 0.0, 0.0, 0.0, 0.0, 0.0, 0.0, 1.657492837035632E9, 0.0, 2022-07-10 18:40:37.035
94.0, 37684.504709780784, 31969.029542092034, -10804.430938295238, -36600.17688276492, 12696.03671980342, 17278.99369943067, -11087.00169169923, 10921.151747840851, 0.042, 0.9400000000000001, 0.202, 192.0, 0.0, 0.0, 0.0, 0.0, 0.0, 0.0, 0.0, 0.0, 0.0, 1.657492837043731E9, 0.0, 2022-07-10 18:40:37.043
95.0, 37586.358199877526, 32004.635871009337, -10858.365697665895, -36852.505725920884, 12701.110565794776, 16573.99732756583, -11107.520593109202, 10588.982473490534, 0.042, 0.9400000000000001, 0.202, 192.0, 0.0, 0.0, 0.0, 0.0, 0.0, 0.0, 0.0, 0.0, 0.0, 1.657492837043752E9, 0.0, 2022-07-10 18:40:37.043
96.0, 37561.70422574332, 32117.55688399755, -10817.66317101278, -36926.132372156666, 12783.521447601492, 15532.249573737334, -11037.872557386465, 10286.988054154881, 0.042, 0.9400000000000001, 0.202, 192.0, 0.0, 0.0, 0.0, 0.0, 0.0, 0.0, 0.0, 0.0, 0.0, 1.657492837051931E9, 0.0, 2022-07-10 18:40:37.051
97.0, 37649.6359884305, 32099.429619244293, -10757.447571450182, -36688.868604763586, 12790.450488382638, 16041.534071151504, -11012.7491966187, 10566.38485984622, 0.03, 0.904, 0.194, 192.0, 0.0, 240.0, 28.0, 64.0, 6.0, 16.0, 0.0, 0.0, 0.0, 1.657492837051989E9, 0.0, 2022-07-10 18:40:37.051
98.0, 37677.06157887716, 31980.764207931068, -10787.890647398312, -36578.31687668763, 12718.94725787011, 17185.563407607486, -11080.005595684719, 10921.487024007682, 0.03, 0.904, 0.194, 192.0, 0.0, 0.0, 0.0, 0.0, 0.0, 0.0, 0.0, 0.0, 0.0, 1.657492837058738E9, 0.0, 2022-07-10 18:40:37.058
99.0, 37582.4689963423, 31984.94398414421, -10851.459008629205, -36807.57871956572, 12697.534286681925, 16757.84042571073, -11125.178471228895, 10642.783122394458, 0.03, 0.904, 0.194, 192.0, 0.0, 0.0, 0.0, 0.0, 0.0, 0.0, 0.0, 0.0, 0.0, 1.657492837058758E9, 0.0, 2022-07-10 18:40:37.058
100.0, 37558.172650119384, 32103.54234022407, -10828.928450218255, -36934.514276327405, 12760.186226390151, 15616.225077655921, -11078.217456128295, 10266.625614956096, 0.03, 0.904, 0.194, 192.0, 0.0, 0.0, 0.0, 0.0, 0.0, 0.0, 0.0, 0.0, 0.0, 1.657492837066588E9, 0.0, 2022-07-10 18:40:37.066
101.0, 37648.49604946328, 32119.814410187533, -10766.745897143592, -36733.63914890756, 12788.394127892749, 15828.343132536786, -11034.832720140545, 10462.15867545112, 0.03, 0.904, 0.194, 192.0, 0.0, 0.0, 0.0, 0.0, 0.0, 0.0, 0.0, 0.0, 0.0, 1.657492837066644E9, 0.0, 2022-07-10 18:40:37.066
102.0, 37692.93131744043, 32002.691269241725, -10783.062670595966, -36573.354789418554, 12715.460385735081, 17045.865004761818, -11084.364185853505, 10870.837971071956, 0.03, 0.904, 0.194, 192.0, 0.0, 0.0, 0.0, 0.0, 0.0, 0.0, 0.0, 0.0, 0.0, 1.657492837074799E9, 0.0, 2022-07-10 18:40:37.074
103.0, 37611.43685715638, 31975.71271368417, -10845.491092859638, -36760.371835276106, 12689.487658678016, 16943.78458783443, -11117.176546713896, 10721.148338454765, 0.03, 0.904, 0.194, 192.0, 0.0, 0.0, 0.0, 0.0, 0.0, 0.0, 0.0, 0.0, 0.0, 1.657492837074839E9, 0.0, 2022-07-10 18:40:37.074
104.0, 37578.244516640254, 32083.58223242548, -10840.126674190364, -36932.614378048704, 12752.519578041982, 15763.41131489412, -11053.630537227456, 10300.153231639057, 0.03, 0.904, 0.194, 192.0, 0.0, 0.0, 0.0, 0.0, 0.0, 0.0, 0.0, 0.0, 0.0, 1.657492837082412E9, 0.0, 2022-07-10 18:40:37.082
105.0, 37658.10729957906, 32126.050546890565, -10775.08309782542, -36777.649733740065, 12784.795497035444, 15661.554415411285, -11047.707324946801, 10389.940189116025, 0.03, 0.904, 0.194, 192.0, 0.0, 0.0, 0.0, 0.0, 0.0, 0.0, 0.0, 0.0, 0.0, 1.657492837082559E9, 0.0, 2022-07-10 18:40:37.082
106.0, 37710.74565777131, 32020.125629916864, -10766.589434932404, -36556.456870610346, 12728.51380449698, 16872.348412555268, -11104.503107607736, 10837.489168344639, 0.03, 0.904, 0.194, 192.0, 0.0, 0.0, 0.0, 0.0, 0.0, 0.0, 0.0, 0.0, 0.0, 1.657492837088866E9, 0.0, 2022-07-10 18:40:37.088
107.0, 37636.1802382684, 31966.816719390958, -10829.688409529736, -36685.31467739519, 12690.51583892296, 17098.458659465156, -11104.72662505229, 10807.582534263436, 0.054, 0.916, 0.184, 192.0, 1.0, 176.0, 28.0, 160.0, 5.0, 192.0, 0.0, 0.0, 0.0, 1.657492837088886E9, 0.0, 2022-07-10 18:40:37.088
108.0, 37578.177461406885, 32073.05456078703, -10838.137368933842, -36890.79426417283, 12745.23290934955, 15954.697543942637, -11072.00367116972, 10377.62437792115, 0.054, 0.916, 0.184, 192.0, 0.0, 0.0, 0.0, 0.0, 0.0, 0.0, 0.0, 0.0, 0.0, 1.657492837096079E9, 0.0, 2022-07-10 18:40:37.096
109.0, 37649.25600877476, 32151.687997780802, -10775.865408881356, -36789.69732400147, 12794.540857617958, 15553.528434458785, -11027.456644470292, 10332.630316332617, 0.054, 0.916, 0.184, 192.0, 0.0, 0.0, 0.0, 0.0, 0.0, 0.0, 0.0, 0.0, 0.0, 1.657492837103931E9, 0.0, 2022-07-10 18:40:37.103
110.0, 37712.77966651674, 32064.829118827478, -10753.468960937138, -36548.49964958426, 12746.484607039049, 16663.29254666478, -11054.882234916955, 10769.003423333577, 0.054, 0.916, 0.184, 192.0, 0.0, 0.0, 0.0, 0.0, 0.0, 0.0, 0.0, 0.0, 0.0, 1.657492837103951E9, 0.0, 2022-07-10 18:40:37.103
111.0, 37647.177296540416, 31984.76517018857, -10820.725360003158, -36628.72006043435, 12679.563484139859, 17202.394271182333, -11121.982171771786, 10839.612584067892, 0.054, 0.916, 0.184, 192.0, 0.0, 0.0, 0.0, 0.0, 0.0, 0.0, 0.0, 0.0, 0.0, 1.657492837111269E9, 0.0, 2022-07-10 18:40:37.111
112.0, 37579.786787007666, 32073.993334054154, -10847.636860327348, -36863.65924640408, 12714.432205490139, 16180.517218174604, -11113.24263968976, 10429.97216343548, 0.054, 0.916, 0.184, 192.0, 0.0, 0.0, 0.0, 0.0, 0.0, 0.0, 0.0, 0.0, 0.0, 1.657492837111327E9, 0.0, 2022-07-10 18:40:37.111
113.0, 37650.30654076416, 32181.23700395072, -10783.8449816519, -36827.985862253416, 12789.221142437595, 15513.138832228045, -11008.480013427738, 10299.75090023886, 0.054, 0.916, 0.184, 192.0, 0.0, 0.0, 0.0, 0.0, 0.0, 0.0, 0.0, 0.0, 0.0, 1.657492837118695E9, 0.0, 2022-07-10 18:40:37.118
114.0, 37725.833085278646, 32115.813447930035, -10747.590452145392, -36581.691990100386, 12765.349479359327, 16444.044285302673, -11016.548993176102, 10688.648902016748, 0.054, 0.916, 0.184, 192.0, 0.0, 0.0, 0.0, 0.0, 0.0, 0.0, 0.0, 0.0, 0.0, 1.657492837118757E9, 0.0, 2022-07-10 18:40:37.118
115.0, 37662.86822114804, 32010.492028056626, -10802.70985397218, -36591.683219871906, 12691.633426145725, 17248.483568249176, -11101.127994194985, 10887.892352091356, 0.054, 0.916, 0.184, 192.0, 0.0, 0.0, 0.0, 0.0, 0.0, 0.0, 0.0, 0.0, 0.0, 1.657492837126439E9, 0.0, 2022-07-10 18:40:37.126
116.0, 37579.27269688519, 32060.135252491866, -10851.727229562668, -36836.1442489796, 12708.017254831464, 16413.53415412118, -11096.657645303923, 10499.17316426911, 0.054, 0.916, 0.184, 192.0, 0.0, 0.0, 0.0, 0.0, 0.0, 0.0, 0.0, 0.0, 0.0, 1.657492837126459E9, 0.0, 2022-07-10 18:40:37.126
117.0, 37650.86533437554, 32172.27395442414, -10806.084967384932, -36862.161679525576, 12782.314453400906, 15538.50806218482, -11023.478033957248, 10278.740260450872, 0.078, 0.9500000000000001, 0.184, 192.0, 2.0, 112.0, 29.0, 176.0, 5.0, 192.0, 0.0, 0.0, 0.0, 1.657492837134761E9, 0.0, 2022-07-10 18:40:37.134
118.0, 37747.58133263366, 32135.080651650507, -10756.486446438605, -36627.08838308911, 12770.065697439397, 16230.607477498947, -11021.84635661201, 10644.034820083954, 0.078, 0.9500000000000001, 0.184, 192.0, 0.0, 0.0, 0.0, 0.0, 0.0, 0.0, 0.0, 0.0, 0.0, 1.657492837134822E9, 0.0, 2022-07-10 18:40:37.134
119.0, 37700.48620706632, 32013.375403091362, -10797.010159136076, -36568.59386784957, 12695.41087095867, 17242.94033562426, -11090.577970812079, 10932.26056483514, 0.078, 0.9500000000000001, 0.184, 192.0, 0.0, 0.0, 0.0, 0.0, 0.0, 0.0, 0.0, 0.0, 0.0, 1.65749283714124E9, 0.0, 2022-07-10 18:40:37.141
120.0, 37608.7769995662, 32045.58426685146, -10840.841930012934, -36788.892661201084, 12704.530382696437, 16662.934918753497, -11103.810203529622, 10625.10289253031, 0.078, 0.9500000000000001, 0.184, 192.0, 0.0, 0.0, 0.0, 0.0, 0.0, 0.0, 0.0, 0.0, 0.0, 1.657492837141262E9, 0.0, 2022-07-10 18:40:37.141
121.0, 37673.01591313075, 32168.27299216664, -10807.940162174722, -36866.006179571894, 12773.485514341059, 15647.495168148896, -11045.449798756814, 10309.13863291009, 0.078, 0.9500000000000001, 0.184, 192.0, 0.0, 0.0, 0.0, 0.0, 0.0, 0.0, 0.0, 0.0, 0.0, 1.657492837149519E9, 0.0, 2022-07-10 18:40:37.149
122.0, 37781.55598420573, 32157.253582150173, -10748.439818434694, -36657.68792124843, 12785.734270302568, 16047.881966576811, -11021.645190911913, 10546.268289836442, 0.078, 0.9500000000000001, 0.184, 192.0, 0.0, 0.0, 0.0, 0.0, 0.0, 0.0, 0.0, 0.0, 0.0, 1.657492837149573E9, 0.0, 2022-07-10 18:40:37.149
123.0, 37744.51914364328, 32027.6581677983, -10775.70894667017, -36538.620178535006, 12711.168850799662, 17186.4574773857, -11081.749031752233, 10911.093462835965, 0.078, 0.9500000000000001, 0.184, 192.0, 0.0, 0.0, 0.0, 0.0, 0.0, 0.0, 0.0, 0.0, 0.0, 1.657492837156355E9, 0.0, 2022-07-10 18:40:37.156
124.0, 37643.198686027376, 32022.13728691784, -10836.326877632962, -36743.719785656904, 12691.834591845822, 16890.25215986397, -11116.684808335878, 10694.840335230869, 0.078, 0.9500000000000001, 0.184, 192.0, 0.0, 0.0, 0.0, 0.0, 0.0, 0.0, 0.0, 0.0, 0.0, 1.657492837156397E9, 0.0, 2022-07-10 18:40:37.156
125.0, 37697.424018075944, 32149.16225065735, -10820.14421464732, -36871.72822615245, 12753.99479317603, 15784.1760854931, -11086.129973665473, 10316.872336491626, 0.078, 0.9500000000000001, 0.184, 192.0, 0.0, 0.0, 0.0, 0.0, 0.0, 0.0, 0.0, 0.0, 0.0, 1.657492837165134E9, 0.0, 2022-07-10 18:40:37.165
126.0, 37841.369252368124, 32175.291439925608, -10764.398963975784, -36701.162064214004, 12780.056927210919, 15899.756956071491, -11043.706362689301, 10449.194663667044, 0.078, 0.9500000000000001, 0.184, 192.0, 0.0, 0.0, 0.0, 0.0, 0.0, 0.0, 0.0, 0.0, 0.0, 1.657492837170932E9, 0.0, 2022-07-10 18:40:37.170
127.0, 37805.20412983944, 32046.05365348502, -10768.534036700015, -36538.821344235104, 12723.70817943909, 17047.876661762795, -11070.215531613296, 10864.668889602292, 0.108, 0.9580000000000001, 0.184, 192.0, 3.0, 96.0, 29.0, 240.0, 5.0, 192.0, 0.0, 0.0, 0.0, 1.657492837170987E9, 0.0, 2022-07-10 18:40:37.170
128.0, 37672.144195097, 32010.536731545537, -10825.106301916398, -36688.26510766329, 12697.534286681925, 17044.680362305684, -11106.917096008909, 10774.859580380868, 0.108, 0.9580000000000001, 0.184, 192.0, 0.0, 0.0, 0.0, 0.0, 0.0, 0.0, 0.0, 0.0, 0.0, 1.657492837180472E9, 0.0, 2022-07-10 18:40:37.180
129.0, 37736.04783249472, 32123.591855000483, -10828.682581029247, -36858.49599343491, 12742.215423848085, 15969.762619705514, -11083.045432930641, 10381.982968089935, 0.108, 0.9580000000000001, 0.184, 192.0, 0.0, 0.0, 0.0, 0.0, 0.0, 0.0, 0.0, 0.0, 0.0, 1.657492837180514E9, 0.0, 2022-07-10 18:40:37.180
130.0, 37900.60137517469, 32175.760826559166, -10766.65649016577, -36744.770317646304, 12781.375680133782, 15777.73878308997, -11039.124255075963, 10415.1082533727, 0.108, 0.9580000000000001, 0.184, 192.0, 0.0, 0.0, 0.0, 0.0, 0.0, 0.0, 0.0, 0.0, 0.0, 1.657492837186854E9, 0.0, 2022-07-10 18:40:37.186
131.0, 37880.70832260947, 32054.77083382259, -10749.579757401914, -36541.548257058654, 12740.896670925222, 16860.971374627516, -11067.823894956577, 10828.704932773702, 0.108, 0.9580000000000001, 0.184, 192.0, 0.0, 0.0, 0.0, 0.0, 0.0, 0.0, 0.0, 0.0, 0.0, 1.657492837186875E9, 0.0, 2022-07-10 18:40:37.186
132.0, 37727.46476262388, 31979.37839977484, -10811.18116512074, -36648.3001885772, 12687.967740055054, 17157.73548576063, -11132.44278817687, 10842.00422072461, 0.108, 0.9580000000000001, 0.184, 192.0, 0.0, 0.0, 0.0, 0.0, 0.0, 0.0, 0.0, 0.0, 0.0, 1.657492837194045E9, 0.0, 2022-07-10 18:40:37.194
133.0, 37758.80190835022, 32086.577366182493, -10814.153947133296, -36832.90324603358, 12741.924851170166, 16152.063447482999, -11074.060031659608, 10484.666882117615, 0.108, 0.9580000000000001, 0.184, 192.0, 0.0, 0.0, 0.0, 0.0, 0.0, 0.0, 0.0, 0.0, 0.0, 1.657492837194084E9, 0.0, 2022-07-10 18:40:37.194
134.0, 37920.53913122882, 32162.50624209717, -10758.185179017208, -36772.70999821544, 12793.758546562023, 15691.43869774803, -11024.685028157834, 10416.248192339921, 0.108, 0.9580000000000001, 0.184, 192.0, 0.0, 0.0, 0.0, 0.0, 0.0, 0.0, 0.0, 0.0, 0.0, 1.65749283720153E9, 0.0, 2022-07-10 18:40:37.201
135.0, 37926.30588129829, 32059.442348413748, -10737.576870629415, -36559.27319041171, 12755.268842609983, 16648.875671491107, -11062.370069309482, 10802.531040016538, 0.108, 0.9580000000000001, 0.184, 192.0, 0.0, 0.0, 0.0, 0.0, 0.0, 0.0, 0.0, 0.0, 0.0, 1.657492837201565E9, 0.0, 2022-07-10 18:40:37.201
136.0, 37767.496736943336, 31953.919762840243, -10800.966417904667, -36615.040792827705, 12687.364242954762, 17211.491431175644, -11140.981154558796, 10899.15763129683, 0.108, 0.9580000000000001, 0.184, 192.0, 0.0, 0.0, 0.0, 0.0, 0.0, 0.0, 0.0, 0.0, 0.0, 1.657492837209871E9, 0.0, 2022-07-10 18:40:37.209
137.0, 37760.210068250904, 32038.096432458933, -10826.335647861439, -36826.55535060827, 12718.56727821437, 16332.509080470692, -11112.19210770036, 10533.37133328573, 0.11, 0.974, 0.186, 192.0, 3.0, 112.0, 30.0, 112.0, 5.0, 208.0, 0.0, 0.0, 0.0, 1.657492837209921E9, 0.0, 2022-07-10 18:40:37.209
138.0, 37941.75093671691, 32145.295398866583, -10779.396984505294, -36816.20649292547, 12778.537008587959, 15657.978136298436, -11053.697592460823, 10373.511656941373, 0.11, 0.974, 0.186, 192.0, 0.0, 0.0, 0.0, 0.0, 0.0, 0.0, 0.0, 0.0, 0.0, 1.657492837216764E9, 0.0, 2022-07-10 18:40:37.216
139.0, 37998.05498099983, 32071.042903786052, -10747.74691435658, -36606.03303981222, 12759.023935678475, 16426.878145560997, -11060.38076405296, 10714.845146518368, 0.11, 0.974, 0.186, 192.0, 0.0, 0.0, 0.0, 0.0, 0.0, 0.0, 0.0, 0.0, 0.0, 1.657492837216801E9, 0.0, 2022-07-10 18:40:37.216
140.0, 37841.12338317912, 31941.17926850072, -10791.958664889176, -36600.981545565315, 12702.205801273085, 17222.153213280824, -11112.303866422639, 10931.344143312472, 0.11, 0.974, 0.186, 192.0, 0.0, 0.0, 0.0, 0.0, 0.0, 0.0, 0.0, 0.0, 0.0, 1.65749283722338E9, 0.0, 2022-07-10 18:40:37.223
141.0, 37786.11574007461, 31982.61940272086, -10834.069351442975, -36821.01211798336, 12711.079443821842, 16533.875946268552, -11130.38642768698, 10606.439185910129, 0.11, 0.974, 0.186, 192.0, 0.0, 0.0, 0.0, 0.0, 0.0, 0.0, 0.0, 0.0, 0.0, 1.657492837232012E9, 0.0, 2022-07-10 18:40:37.232
142.0, 37969.22123065248, 32099.0272878441, -10797.32308355845, -36866.9002493501, 12766.847046237834, 15690.902255881103, -11084.47594457578, 10353.283328209322, 0.11, 0.974, 0.186, 192.0, 0.0, 0.0, 0.0, 0.0, 0.0, 0.0, 0.0, 0.0, 0.0, 1.657492837232098E9, 0.0, 2022-07-10 18:40:37.232
143.0, 38066.987760899996, 32060.247011214142, -10755.011231304554, -36671.27778187726, 12766.824694493378, 16223.8796024179, -11056.893891917933, 10624.745264619025, 0.11, 0.974, 0.186, 192.0, 0.0, 0.0, 0.0, 0.0, 0.0, 0.0, 0.0, 0.0, 0.0, 1.657492837239244E9, 0.0, 2022-07-10 18:40:37.239
144.0, 37907.709229911474, 31922.44850664717, -10786.214266564164, -36600.33334497611, 12702.809298373379, 17174.432238868743, -11129.335895697583, 10919.140090839874, 0.11, 0.974, 0.186, 192.0, 0.0, 0.0, 0.0, 0.0, 0.0, 0.0, 0.0, 0.0, 0.0, 1.65749283723927E9, 0.0, 2022-07-10 18:40:37.239
145.0, 37817.43053405649, 31940.732233611612, -10839.836101512445, -36805.56706256474, 12686.850152832289, 16734.84048066622, -11156.090933810585, 10668.755849451525, 0.11, 0.974, 0.186, 192.0, 0.0, 0.0, 0.0, 0.0, 0.0, 0.0, 0.0, 0.0, 0.0, 1.657492837246223E9, 0.0, 2022-07-10 18:40:37.246
146.0, 37985.64976282713, 32075.78147361058, -10813.14811863281, -36904.674697479575, 12750.28440359645, 15767.948719018546, -11082.017252685697, 10355.76437184386, 0.11, 0.974, 0.186, 192.0, 0.0, 0.0, 0.0, 0.0, 0.0, 0.0, 0.0, 0.0, 0.0, 1.657492837246281E9, 0.0, 2022-07-10 18:40:37.246
147.0, 38133.21597972107, 32076.40732245533, -10761.090905796398, -36728.9676343164, 12769.61866255029, 16038.471882161128, -11049.160188336396, 10541.70853396756, 0.09, 0.934, 0.192, 192.0, 2.0, 208.0, 29.0, 48.0, 6.0, 0.0, 0.0, 0.0, 0.0, 1.657492837253772E9, 0.0, 2022-07-10 18:40:37.253
148.0, 37995.0151437539, 31934.74196609759, -10775.239560036607, -36598.83577809761, 12714.074577578853, 17078.18562724419, -11090.91324697891, 10895.223724272695, 0.09, 0.934, 0.192, 192.0, 0.0, 0.0, 0.0, 0.0, 0.0, 0.0, 0.0, 0.0, 0.0, 1.657492837253805E9, 0.0, 2022-07-10 18:40:37.253
149.0, 37857.82013628723, 31916.055907732956, -10830.202499652207, -36763.61283822213, 12692.03575754592, 16901.673901280632, -11128.330067197094, 10742.449550920672, 0.09, 0.934, 0.192, 192.0, 0.0, 0.0, 0.0, 0.0, 0.0, 0.0, 0.0, 0.0, 0.0, 1.657492837261874E9, 0.0, 2022-07-10 18:40:37.261
150.0, 38010.773123594896, 32047.417109896793, -10826.04507518352, -36904.451180035016, 12737.812130190388, 15890.726851311549, -11106.179488441883, 10376.260921509376, 0.09, 0.934, 0.192, 192.0, 0.0, 0.0, 0.0, 0.0, 0.0, 0.0, 0.0, 0.0, 0.0, 1.657492837261895E9, 0.0, 2022-07-10 18:40:37.261
151.0, 38193.52098626149, 32080.16241552382, -10779.598150205393, -36769.536050502786, 12762.7119735136, 15890.279816422442, -11080.743203251744, 10448.68057354457, 0.09, 0.934, 0.192, 192.0, 0.0, 0.0, 0.0, 0.0, 0.0, 0.0, 0.0, 0.0, 0.0, 1.657492837269755E9, 0.0, 2022-07-10 18:40:37.269
152.0, 38092.133473412214, 31944.755547613568, -10781.453344995183, -36606.927109590426, 12714.52161246796, 16941.415302922167, -11109.19697394335, 10835.47751134366, 0.09, 0.934, 0.192, 192.0, 0.0, 0.0, 0.0, 0.0, 0.0, 0.0, 0.0, 0.0, 0.0, 1.657492837269826E9, 0.0, 2022-07-10 18:40:37.269
153.0, 37917.588700960725, 31895.78287551199, -10831.700066530713, -36732.78978261826, 12682.402155685682, 17050.67062981971, -11133.314506210627, 10787.331853786929, 0.09, 0.934, 0.192, 192.0, 0.0, 0.0, 0.0, 0.0, 0.0, 0.0, 0.0, 0.0, 0.0, 1.657492837276409E9, 0.0, 2022-07-10 18:40:37.276
154.0, 38032.364908738724, 32025.981786964156, -10832.080046186453, -36897.70095320952, 12721.473004993559, 16063.103504550876, -11115.38840715747, 10418.30455282981, 0.09, 0.934, 0.192, 192.0, 0.0, 0.0, 0.0, 0.0, 0.0, 0.0, 0.0, 0.0, 0.0, 1.657492837276451E9, 0.0, 2022-07-10 18:40:37.276
155.0, 38258.34104518188, 32095.272194775607, -10785.677824697235, -36805.00826895336, 12761.460275824104, 15799.88936184518, -11078.351566595027, 10413.990666149935, 0.09, 0.934, 0.192, 192.0, 0.0, 0.0, 0.0, 0.0, 0.0, 0.0, 0.0, 0.0, 0.0, 1.657492837283505E9, 0.0, 2022-07-10 18:40:37.283
156.0, 38192.78337869446, 31969.07424558094, -10777.60884494887, -36620.18169405242, 12726.14451958472, 16774.336013118747, -11100.792718028155, 10787.912999142767, 0.09, 0.934, 0.192, 192.0, 0.0, 0.0, 0.0, 0.0, 0.0, 0.0, 0.0, 0.0, 0.0, 1.657492837291712E9, 0.0, 2022-07-10 18:40:37.291
157.0, 37973.49041384344, 31879.26493635952, -10836.036304955043, -36704.67128809349, 12677.596530627792, 17139.719979729653, -11157.946128600375, 10813.975133177655, 0.076, 0.902, 0.192, 192.0, 2.0, 96.0, 28.0, 48.0, 6.0, 0.0, 0.0, 0.0, 0.0, 1.65749283729175E9, 0.0, 2022-07-10 18:40:37.291
158.0, 38035.181228540096, 31994.287013326528, -10847.614508582892, -36894.035267118845, 12712.666417678169, 16226.986494897188, -11150.413590718937, 10427.334657589754, 0.076, 0.902, 0.192, 192.0, 0.0, 0.0, 0.0, 0.0, 0.0, 0.0, 0.0, 0.0, 0.0, 1.657492837299339E9, 0.0, 2022-07-10 18:40:37.299
159.0, 38286.548946684474, 32093.662869174826, -10800.541734760016, -36847.118955507154, 12759.470970567581, 15741.193680905544, -11097.596418571045, 10356.43492417752, 0.076, 0.902, 0.192, 192.0, 0.0, 0.0, 0.0, 0.0, 0.0, 0.0, 0.0, 0.0, 0.0, 1.657492837299358E9, 0.0, 2022-07-10 18:40:37.299
160.0, 38274.0319697895, 31996.61159474988, -10774.971339103144, -36646.690862976415, 12734.816996433377, 16578.42297296798, -11101.8208982731, 10731.11721648183, 0.076, 0.902, 0.192, 192.0, 0.0, 0.0, 0.0, 0.0, 0.0, 0.0, 0.0, 0.0, 0.0, 1.657492837306275E9, 0.0, 2022-07-10 18:40:37.306
161.0, 38024.98883306847, 31879.577860781894, -10822.46879607067, -36672.52947956675, 12680.591664384803, 17178.0532214705, -11157.141465799985, 10860.802037811523, 0.076, 0.902, 0.192, 192.0, 0.0, 0.0, 0.0, 0.0, 0.0, 0.0, 0.0, 0.0, 0.0, 1.657492837306325E9, 0.0, 2022-07-10 18:40:37.306
162.0, 38038.019900085914, 31965.922649612745, -10845.37933413736, -36851.254028231386, 12705.111528052275, 16438.8810323335, -11138.164834757428, 10546.916490425647, 0.076, 0.902, 0.192, 192.0, 0.0, 0.0, 0.0, 0.0, 0.0, 0.0, 0.0, 0.0, 0.0, 1.657492837314522E9, 0.0, 2022-07-10 18:40:37.314
163.0, 38296.11549331135, 32086.756180138134, -10810.152984875796, -36854.20445849949, 12755.760580988, 15762.338431160264, -11088.745127766744, 10361.24054923541, 0.076, 0.902, 0.192, 192.0, 0.0, 0.0, 0.0, 0.0, 0.0, 0.0, 0.0, 0.0, 0.0, 1.657492837314578E9, 0.0, 2022-07-10 18:40:37.314
164.0, 38341.53423804453, 32015.58822579244, -10777.497086226593, -36662.02415967276, 12745.724647727568, 16399.988996981265, -11084.47594457578, 10645.666497429193, 0.076, 0.902, 0.192, 192.0, 0.0, 0.0, 0.0, 0.0, 0.0, 0.0, 0.0, 0.0, 0.0, 1.657492837322289E9, 0.0, 2022-07-10 18:40:37.322
165.0, 38101.18592991662, 31877.11916889181, -10815.025665167053, -36628.25067380079, 12686.045490031898, 17198.750936836117, -11129.87233756451, 10881.924436321788, 0.076, 0.902, 0.192, 192.0, 0.0, 0.0, 0.0, 0.0, 0.0, 0.0, 0.0, 0.0, 0.0, 1.657492837322333E9, 0.0, 2022-07-10 18:40:37.322
166.0, 38044.63601644469, 31935.099594008876, -10853.24714818563, -36820.632138327615, 12690.18056275613, 16627.887383447574, -11158.147294300474, 10594.257485181986, 0.076, 0.902, 0.192, 192.0, 0.0, 0.0, 0.0, 0.0, 0.0, 0.0, 0.0, 0.0, 0.0, 1.65749283732865E9, 0.0, 2022-07-10 18:40:37.328
167.0, 38292.67332466523, 32087.136159793874, -10818.691351257725, -36874.70100816501, 12754.553586787413, 15795.039033298379, -11122.272744449705, 10320.09098769319, 0.068, 0.926, 0.184, 192.0, 2.0, 32.0, 28.0, 240.0, 5.0, 192.0, 0.0, 0.0, 0.0, 1.657492837328796E9, 0.0, 2022-07-10 18:40:37.328
168.0, 38402.398038196334, 32062.303371704027, -10761.292071496497, -36686.968706484884, 12768.47872358307, 16218.045797115064, -11074.57412178208, 10571.101077926289, 0.068, 0.926, 0.184, 192.0, 0.0, 0.0, 0.0, 0.0, 0.0, 0.0, 0.0, 0.0, 0.0, 1.657492837338261E9, 0.0, 2022-07-10 18:40:37.338
169.0, 38184.24501231254, 31903.002488971055, -10790.930484644234, -36601.24976649878, 12697.042548303909, 17163.39047710782, -11124.82084331761, 10880.896256076843, 0.068, 0.926, 0.184, 192.0, 0.0, 0.0, 0.0, 0.0, 0.0, 0.0, 0.0, 0.0, 0.0, 1.657492837338298E9, 0.0, 2022-07-10 18:40:37.338
170.0, 38066.11604286624, 31913.440753631683, -10841.020743968576, -36787.86448095614, 12681.642196374201, 16826.862612588717, -11141.852872592553, 10655.38950626725, 0.068, 0.926, 0.184, 192.0, 0.0, 0.0, 0.0, 0.0, 0.0, 0.0, 0.0, 0.0, 0.0, 1.657492837344084E9, 0.0, 2022-07-10 18:40:37.344
171.0, 38289.432321719214, 32058.05654025752, -10823.09464491542, -36883.19467105802, 12732.09008360983, 15912.34098819983, -11092.299055135138, 10359.742982356904, 0.068, 0.926, 0.184, 192.0, 0.0, 0.0, 0.0, 0.0, 0.0, 0.0, 0.0, 0.0, 0.0, 1.657492837353363E9, 0.0, 2022-07-10 18:40:37.353
172.0, 38461.98778891418, 32071.579345652983, -10770.098658811887, -36731.716898884406, 12755.402953076715, 16082.393060015806, -11063.9123396769, 10524.296525036874, 0.068, 0.926, 0.184, 192.0, 0.0, 0.0, 0.0, 0.0, 0.0, 0.0, 0.0, 0.0, 0.0, 1.657492837353387E9, 0.0, 2022-07-10 18:40:37.353
173.0, 38278.748187869576, 31916.860570533347, -10784.917865385756, -36604.468417700344, 12702.071690806353, 17075.592824887375, -11107.006502986731, 10860.355002922417, 0.068, 0.926, 0.184, 192.0, 0.0, 0.0, 0.0, 0.0, 0.0, 0.0, 0.0, 0.0, 0.0, 1.657492837360118E9, 0.0, 2022-07-10 18:40:37.360
174.0, 38111.26656666596, 31887.848006230357, -10839.813749767989, -36750.60412294914, 12676.70246084958, 17006.056547886914, -11144.669192393923, 10736.727504340113, 0.068, 0.926, 0.184, 192.0, 0.0, 0.0, 0.0, 0.0, 0.0, 0.0, 0.0, 0.0, 0.0, 1.657492837360198E9, 0.0, 2022-07-10 18:40:37.360
175.0, 38295.780217144515, 32033.514324845593, -10827.766159506578, -36880.8030344013, 12728.782025430444, 16052.754646868068, -11109.353436154537, 10393.091785084223, 0.068, 0.926, 0.184, 192.0, 0.0, 0.0, 0.0, 0.0, 0.0, 0.0, 0.0, 0.0, 0.0, 1.65749283736641E9, 0.0, 2022-07-10 18:40:37.366
176.0, 38512.27921393862, 32092.701744163245, -10771.75268790158, -36760.48359399839, 12766.645880537735, 15968.063887126911, -11065.812237955599, 10444.187872909055, 0.068, 0.926, 0.184, 192.0, 0.0, 0.0, 0.0, 0.0, 0.0, 0.0, 0.0, 0.0, 0.0, 1.657492837366443E9, 0.0, 2022-07-10 18:40:37.366
177.0, 38389.4116746678, 31951.014036061057, -10774.032565836022, -36596.10886527406, 12717.047359591408, 16957.843835096817, -11099.228095916284, 10808.677769741747, 0.07, 0.9420000000000001, 0.186, 192.0, 2.0, 48.0, 29.0, 112.0, 5.0, 208.0, 0.0, 0.0, 0.0, 1.657492837374747E9, 0.0, 2022-07-10 18:40:37.374
178.0, 38180.33345703286, 31886.573956796405, -10829.017857196077, -36704.98421251586, 12675.294300948895, 17139.518814029554, -11145.943241827876, 10780.313406027963, 0.07, 0.9420000000000001, 0.186, 192.0, 0.0, 0.0, 0.0, 0.0, 0.0, 0.0, 0.0, 0.0, 0.0, 1.657492837374835E9, 0.0, 2022-07-10 18:40:37.374
179.0, 38309.705353940175, 32020.080926427952, -10833.264688642585, -36861.28996149182, 12715.32627526835, 16223.20905008424, -11122.58566887208, 10441.192739152044, 0.07, 0.9420000000000001, 0.186, 192.0, 0.0, 0.0, 0.0, 0.0, 0.0, 0.0, 0.0, 0.0, 0.0, 1.657492837381541E9, 0.0, 2022-07-10 18:40:37.381
180.0, 38552.713519658275, 32099.988412855677, -10790.572856732948, -36796.08992291569, 12755.268842609983, 15892.313825167874, -11081.05612767412, 10400.132584587644, 0.07, 0.9420000000000001, 0.186, 192.0, 0.0, 0.0, 0.0, 0.0, 0.0, 0.0, 0.0, 0.0, 0.0, 1.657492837381591E9, 0.0, 2022-07-10 18:40:37.381
181.0, 38482.596097301976, 31978.1490538298, -10778.592321704904, -36611.755086392775, 12720.020141603964, 16788.79759178133, -11094.824802258589, 10754.631251648814, 0.07, 0.9420000000000001, 0.186, 192.0, 0.0, 0.0, 0.0, 0.0, 0.0, 0.0, 0.0, 0.0, 0.0, 1.657492837389234E9, 0.0, 2022-07-10 18:40:37.389
182.0, 38261.35853068335, 31881.388352082773, -10826.849737983912, -36669.64610453202, 12674.690803848602, 17231.406835485323, -11141.696410381366, 10827.967325206677, 0.07, 0.9420000000000001, 0.186, 192.0, 0.0, 0.0, 0.0, 0.0, 0.0, 0.0, 0.0, 0.0, 0.0, 1.657492837389298E9, 0.0, 2022-07-10 18:40:37.389
183.0, 38314.26510980906, 31990.62132723586, -10840.685467801746, -36849.62235088615, 12710.006560087986, 16385.66152878541, -11127.860680563532, 10473.26749244541, 0.07, 0.9420000000000001, 0.186, 192.0, 0.0, 0.0, 0.0, 0.0, 0.0, 0.0, 0.0, 0.0, 0.0, 1.657492837397519E9, 0.0, 2022-07-10 18:40:37.397
184.0, 38577.41219728139, 32099.988412855677, -10800.921714415756, -36809.3892108666, 12755.402953076715, 15853.33238283782, -11082.061956174608, 10377.222046520954, 0.07, 0.9420000000000001, 0.186, 192.0, 0.0, 0.0, 0.0, 0.0, 0.0, 0.0, 0.0, 0.0, 0.0, 1.65749283739754E9, 0.0, 2022-07-10 18:40:37.397
185.0, 38581.39080779443, 32012.883664713347, -10774.859580380868, -36617.834760884616, 12736.068694122874, 16614.409281541026, -11082.218418385795, 10727.295068179974, 0.07, 0.9420000000000001, 0.186, 192.0, 0.0, 0.0, 0.0, 0.0, 0.0, 0.0, 0.0, 0.0, 0.0, 1.657492837404156E9, 0.0, 2022-07-10 18:40:37.404
186.0, 38349.02207243706, 31892.251299888052, -10819.09368265792, -36616.18073179492, 12681.284568462917, 17289.387260602387, -11130.721703853811, 10898.688244663268, 0.07, 0.9420000000000001, 0.186, 192.0, 0.0, 0.0, 0.0, 0.0, 0.0, 0.0, 0.0, 0.0, 0.0, 1.657492837404199E9, 0.0, 2022-07-10 18:40:37.404
187.0, 38338.91908394326, 31962.301667010986, -10853.045982485532, -36807.71283003245, 12693.198048257596, 16606.407357026026, -11134.968535300319, 10582.344005387307, 0.062, 0.974, 0.186, 192.0, 1.0, 240.0, 30.0, 112.0, 5.0, 208.0, 0.0, 0.0, 0.0, 1.65749283741103E9, 0.0, 2022-07-10 18:40:37.411
188.0, 38588.02927589766, 32091.718267407214, -10816.545583790015, -36833.26087394487, 12745.590537260836, 15869.805618501381, -11095.24948540324, 10364.43684869252, 0.062, 0.974, 0.186, 192.0, 0.0, 0.0, 0.0, 0.0, 0.0, 0.0, 0.0, 0.0, 0.0, 1.657492837418763E9, 0.0, 2022-07-10 18:40:37.418
189.0, 38666.662712891426, 32040.689234815745, -10779.665205438758, -36646.1991245984, 12737.320391812373, 16435.930602065397, -11092.120241179497, 10636.256413013509, 0.062, 0.974, 0.186, 192.0, 0.0, 0.0, 0.0, 0.0, 0.0, 0.0, 0.0, 0.0, 0.0, 1.657492837418797E9, 0.0, 2022-07-10 18:40:37.418
190.0, 38446.4756782622, 31904.701221549658, -10808.655417997292, -36603.12731303302, 12685.397289442693, 17274.65746100634, -11124.239697961772, 10888.898180591845, 0.062, 0.974, 0.186, 192.0, 0.0, 0.0, 0.0, 0.0, 0.0, 0.0, 0.0, 0.0, 0.0, 1.657492837426609E9, 0.0, 2022-07-10 18:40:37.426
191.0, 38366.948171490214, 31944.956713313666, -10844.977002737165, -36782.85769019815, 12686.805449343377, 16786.98710048045, -11137.471930679314, 10630.891994344234, 0.062, 0.974, 0.186, 192.0, 0.0, 0.0, 0.0, 0.0, 0.0, 0.0, 0.0, 0.0, 0.0, 1.65749283742663E9, 0.0, 2022-07-10 18:40:37.426
192.0, 38602.40144758242, 32091.83002612949, -10815.38329307834, -36843.073289760745, 12743.824749448866, 15928.523651185473, -11101.798546528644, 10355.76437184386, 0.062, 0.974, 0.186, 192.0, 0.0, 0.0, 0.0, 0.0, 0.0, 0.0, 0.0, 0.0, 0.0, 1.657492837433653E9, 0.0, 2022-07-10 18:40:37.433
193.0, 38739.95408296038, 32081.659982402325, -10770.836266378912, -36680.28553489275, 12752.13959838624, 16258.390695856893, -11087.024043443686, 10552.213853861555, 0.062, 0.974, 0.186, 192.0, 0.0, 0.0, 0.0, 0.0, 0.0, 0.0, 0.0, 0.0, 0.0, 1.657492837433674E9, 0.0, 2022-07-10 18:40:37.433
194.0, 38548.176115533846, 31930.159858484254, -10798.284208570029, -36587.72696110332, 12695.522629680949, 17209.099794518923, -11134.432093433392, 10862.925453534777, 0.062, 0.974, 0.186, 192.0, 0.0, 0.0, 0.0, 0.0, 0.0, 0.0, 0.0, 0.0, 0.0, 1.657492837441114E9, 0.0, 2022-07-10 18:40:37.441
195.0, 38420.45824771622, 31933.959655041657, -10846.988659738143, -36755.61091370713, 12682.446859174594, 16955.094570528814, -11158.884901867497, 10687.330149093885, 0.062, 0.974, 0.186, 192.0, 0.0, 0.0, 0.0, 0.0, 0.0, 0.0, 0.0, 0.0, 0.0, 1.657492837441135E9, 0.0, 2022-07-10 18:40:37.441
196.0, 38621.60159606953, 32077.234337000173, -10829.107264173897, -36860.619409158164, 12728.938487641632, 16015.762509794535, -11132.889823065976, 10364.123924270145, 0.062, 0.974, 0.186, 192.0, 0.0, 0.0, 0.0, 0.0, 0.0, 0.0, 0.0, 0.0, 0.0, 1.657492837449577E9, 0.0, 2022-07-10 18:40:37.449
197.0, 38801.13080753456, 32105.911625136334, -10774.7925251475, -36721.993890046346, 12756.006450177008, 16089.702080452691, -11093.438994102358, 10481.939969294068, 0.056, 0.976, 0.184, 192.0, 1.0, 192.0, 30.0, 128.0, 5.0, 192.0, 0.0, 0.0, 0.0, 1.657492837449604E9, 0.0, 2022-07-10 18:40:37.449
198.0, 38665.7239396243, 31967.867251380358, -10779.08406008292, -36573.42184465192, 12704.351568740794, 17104.203057790168, -11112.035645489173, 10853.850645285922, 0.056, 0.976, 0.184, 192.0, 0.0, 0.0, 0.0, 0.0, 0.0, 0.0, 0.0, 0.0, 0.0, 1.657492837457213E9, 0.0, 2022-07-10 18:40:37.457
199.0, 38504.32199291253, 31925.957730526658, -10838.182072422753, -36717.81411383321, 12663.626690343224, 17118.731691686116, -11167.713840927345, 10755.257100493563, 0.056, 0.976, 0.184, 192.0, 0.0, 0.0, 0.0, 0.0, 0.0, 0.0, 0.0, 0.0, 0.0, 1.657492837457234E9, 0.0, 2022-07-10 18:40:37.457
200.0, 38643.64041610246, 32058.615333868904, -10837.846796255923, -36876.44444423252, 12700.238847761018, 16145.134406701853, -11182.063660867652, 10379.278407010843, 0.056, 0.976, 0.184, 192.0, 0.0, 0.0, 0.0, 0.0, 0.0, 0.0, 0.0, 0.0, 0.0, 1.657492837463868E9, 0.0, 2022-07-10 18:40:37.463
201.0, 38851.17636336999, 32124.64238698988, -10776.088926325909, -36769.536050502786, 12755.537063543446, 15971.617814495305, -11088.789831255655, 10423.154881376611, 0.056, 0.976, 0.184, 192.0, 0.0, 0.0, 0.0, 0.0, 0.0, 0.0, 0.0, 0.0, 0.0, 1.657492837463908E9, 0.0, 2022-07-10 18:40:37.463
202.0, 38756.29320815721, 31991.403638291795, -10772.311481512963, -36594.76776060674, 12715.818013646367, 16955.6533641402, -11085.526476565181, 10797.546601003003, 0.056, 0.976, 0.184, 192.0, 0.0, 0.0, 0.0, 0.0, 0.0, 0.0, 0.0, 0.0, 0.0, 1.657492837471209E9, 0.0, 2022-07-10 18:40:37.471
203.0, 38562.25771454069, 31918.805172300956, -10830.068389185475, -36690.522633853274, 12667.918225278643, 17244.370847269398, -11118.383540914481, 10810.510612787082, 0.056, 0.976, 0.184, 192.0, 0.0, 0.0, 0.0, 0.0, 0.0, 0.0, 0.0, 0.0, 0.0, 1.65749283747889E9, 0.0, 2022-07-10 18:40:37.478
204.0, 38639.818267800605, 32034.38604287935, -10843.05475271401, -36877.38321749964, 12702.809298373379, 16308.480955181238, -11100.323331394593, 10454.268509658397, 0.056, 0.976, 0.184, 192.0, 0.0, 0.0, 0.0, 0.0, 0.0, 0.0, 0.0, 0.0, 0.0, 1.65749283747891E9, 0.0, 2022-07-10 18:40:37.478
205.0, 38853.657407004524, 32128.665700991834, -10786.884818897823, -36815.71475454745, 12760.655613023713, 15891.062127478377, -11048.936670891842, 10397.53978223083, 0.056, 0.976, 0.184, 192.0, 0.0, 0.0, 0.0, 0.0, 0.0, 0.0, 0.0, 0.0, 0.0, 1.657492837487091E9, 0.0, 2022-07-10 18:40:37.487
206.0, 38808.238662271346, 32014.38123159185, -10774.971339103144, -36625.63551969952, 12727.66443820768, 16774.38071660766, -11066.169865866885, 10762.387306974806, 0.056, 0.976, 0.184, 192.0, 0.0, 0.0, 0.0, 0.0, 0.0, 0.0, 0.0, 0.0, 0.0, 1.657492837487133E9, 0.0, 2022-07-10 18:40:37.487
207.0, 38581.77078745017, 31904.61181457184, -10833.801130509511, -36676.35162786861, 12668.901702034676, 17296.80803976155, -11128.173604985906, 10868.446334415237, 0.058, 0.932, 0.176, 192.0, 1.0, 208.0, 29.0, 32.0, 5.0, 128.0, 0.0, 0.0, 0.0, 1.657492837493407E9, 0.0, 2022-07-10 18:40:37.493
208.0, 38578.82035718207, 31994.42112379326, -10856.398744153828, -36875.9527058545, 12691.678129634634, 16470.39699201548, -11126.184299729384, 10519.356789512252, 0.058, 0.932, 0.176, 192.0, 0.0, 0.0, 0.0, 0.0, 0.0, 0.0, 0.0, 0.0, 0.0, 1.65749283749343E9, 0.0, 2022-07-10 18:40:37.493
209.0, 38774.107548488086, 32108.906758893343, -10801.346397560406, -36862.921638837055, 12750.016182662986, 15825.191536568587, -11069.23205485726, 10357.463104422462, 0.058, 0.932, 0.176, 192.0, 0.0, 0.0, 0.0, 0.0, 0.0, 0.0, 0.0, 0.0, 0.0, 1.657492837501507E9, 0.0, 2022-07-10 18:40:37.501
210.0, 38791.69837137441, 32034.073118456978, -10769.98690008961, -36650.17773511144, 12734.034685377443, 16551.5561761327, -11064.873464688477, 10686.279617104485, 0.058, 0.932, 0.176, 192.0, 0.0, 0.0, 0.0, 0.0, 0.0, 0.0, 0.0, 0.0, 0.0, 1.657492837501543E9, 0.0, 2022-07-10 18:40:37.501
211.0, 38587.02344739717, 31891.938375465677, -10827.028551939555, -36644.43333678643, 12658.821065285334, 17311.29197016859, -11133.761541099733, 10885.456011945727, 0.058, 0.932, 0.176, 192.0, 0.0, 0.0, 0.0, 0.0, 0.0, 0.0, 0.0, 0.0, 0.0, 1.657492837509541E9, 0.0, 2022-07-10 18:40:37.509
212.0, 38509.57465285953, 31942.520373168038, -10853.71653481919, -36851.186972998024, 12676.858923060767, 16633.81059572823, -11147.418456961925, 10561.601586532783, 0.058, 0.932, 0.176, 192.0, 0.0, 0.0, 0.0, 0.0, 0.0, 0.0, 0.0, 0.0, 0.0, 1.657492837509562E9, 0.0, 2022-07-10 18:40:37.509
213.0, 38679.49261420877, 32070.68527587477, -10811.158813376285, -36876.80207214381, 12737.678019723657, 15812.65220792916, -11092.410813857416, 10327.131787196611, 0.058, 0.932, 0.176, 192.0, 0.0, 0.0, 0.0, 0.0, 0.0, 0.0, 0.0, 0.0, 0.0, 1.657492837518601E9, 0.0, 2022-07-10 18:40:37.518
214.0, 38741.22813239433, 32034.38604287935, -10763.482542453115, -36672.909459222494, 12749.56914777388, 16319.545068686613, -11072.070726403086, 10596.224438694053, 0.058, 0.932, 0.176, 192.0, 0.0, 0.0, 0.0, 0.0, 0.0, 0.0, 0.0, 0.0, 0.0, 1.657492837518793E9, 0.0, 2022-07-10 18:40:37.518
215.0, 38556.33450226003, 31897.258090646043, -10796.071385868954, -36599.26046124226, 12688.884161577722, 17243.968515869205, -11120.126976981996, 10884.830163100978, 0.058, 0.932, 0.176, 192.0, 0.0, 0.0, 0.0, 0.0, 0.0, 0.0, 0.0, 0.0, 0.0, 1.657492837524127E9, 0.0, 2022-07-10 18:40:37.524
216.0, 38445.80512592854, 31925.197771215175, -10836.528043333059, -36778.29793432927, 12681.016347529454, 16812.289275203857, -11141.048209792163, 10635.272936257476, 0.058, 0.932, 0.176, 192.0, 0.0, 0.0, 0.0, 0.0, 0.0, 0.0, 0.0, 0.0, 0.0, 1.657492837524147E9, 0.0, 2022-07-10 18:40:37.524
217.0, 38588.25279334221, 32071.177014252786, -10800.139403359819, -36853.64566488811, 12752.072543152875, 15865.916414966157, -11092.299055135138, 10320.202746415467, 0.056, 0.9500000000000001, 0.166, 192.0, 1.0, 192.0, 29.0, 176.0, 5.0, 48.0, 0.0, 0.0, 0.0, 1.657492837531372E9, 0.0, 2022-07-10 18:40:37.531
218.0, 38690.713189925336, 32072.026380542087, -10750.540882413494, -36678.11741568058, 12768.47872358307, 16114.624275520358, -11071.646043258435, 10495.351015967253, 0.056, 0.9500000000000001, 0.166, 192.0, 0.0, 0.0, 0.0, 0.0, 0.0, 0.0, 0.0, 0.0, 0.0, 1.657492837539257E9, 0.0, 2022-07-10 18:40:37.539
219.0, 38549.62897892344, 31924.594274114883, -10780.22399905014, -36564.92818175891, 12698.115432037763, 17145.53143328803, -11130.6770003649, 10841.333668390951, 0.056, 0.9500000000000001, 0.166, 192.0, 0.0, 0.0, 0.0, 0.0, 0.0, 0.0, 0.0, 0.0, 0.0, 1.657492837539277E9, 0.0, 2022-07-10 18:40:37.539
220.0, 38400.386381195356, 31915.765335055035, -10829.464892085183, -36728.54295117175, 12686.537228409914, 16974.54058820493, -11141.20467200335, 10688.313625849918, 0.056, 0.9500000000000001, 0.166, 192.0, 0.0, 0.0, 0.0, 0.0, 0.0, 0.0, 0.0, 0.0, 0.0, 1.65749283754575E9, 0.0, 2022-07-10 18:40:37.545
221.0, 38486.39589385938, 32055.19551696724, -10806.643760996314, -36848.12478400765, 12752.229005364063, 15962.811227179913, -11096.456479603825, 10338.933508269014, 0.056, 0.9500000000000001, 0.166, 192.0, 0.0, 0.0, 0.0, 0.0, 0.0, 0.0, 0.0, 0.0, 0.0, 1.657492837545782E9, 0.0, 2022-07-10 18:40:37.545
222.0, 38615.25370064422, 32089.192520283763, -10759.503931940071, -36713.90255855353, 12781.085107455863, 15951.478892741072, -11063.331194321061, 10420.62913425316, 0.056, 0.9500000000000001, 0.166, 192.0, 0.0, 0.0, 0.0, 0.0, 0.0, 0.0, 0.0, 0.0, 0.0, 1.657492837553801E9, 0.0, 2022-07-10 18:40:37.553
223.0, 38525.55615014507, 31952.779823873025, -10766.432972721217, -36556.70273979935, 12720.221307304062, 17009.051681643927, -11096.210610414817, 10797.61365623637, 0.056, 0.9500000000000001, 0.166, 192.0, 0.0, 0.0, 0.0, 0.0, 0.0, 0.0, 0.0, 0.0, 0.0, 1.657492837553822E9, 0.0, 2022-07-10 18:40:37.553
224.0, 38365.070624955966, 31904.16477968273, -10827.09560717292, -36688.287459407744, 12681.530437651925, 17114.261342795056, -11133.068637021619, 10752.485484181105, 0.056, 0.9500000000000001, 0.166, 192.0, 0.0, 0.0, 0.0, 0.0, 0.0, 0.0, 0.0, 0.0, 0.0, 1.657492837561822E9, 0.0, 2022-07-10 18:40:37.561
225.0, 38415.809084869514, 32027.47935384266, -10825.910964716788, -36854.897362577605, 12733.52059525497, 16099.894475924311, -11119.67994209289, 10376.43973546502, 0.056, 0.9500000000000001, 0.166, 192.0, 0.0, 0.0, 0.0, 0.0, 0.0, 0.0, 0.0, 0.0, 0.0, 1.657492837561867E9, 0.0, 2022-07-10 18:40:37.561
226.0, 38554.54636270361, 32099.563729711026, -10758.855731350868, -36755.29798928476, 12790.517543616003, 15812.294580017875, -11053.09409536053, 10363.90040682559, 0.054, 0.96, 0.156, 192.0, 1.0, 176.0, 30.0, 0.0, 4.0, 224.0, 0.0, 0.0, 0.0, 1.65749283756896E9, 0.0, 2022-07-10 18:40:37.568
227.0, 38518.04596400809, 31991.33658305843, -10745.690553866692, -36559.4296526229, 12749.680906496156, 16820.201792741038, -11070.103772891018, 10757.626385405825, 0.054, 0.96, 0.156, 192.0, 0.0, 0.0, 0.0, 0.0, 0.0, 0.0, 0.0, 0.0, 0.0, 1.657492837568993E9, 0.0, 2022-07-10 18:40:37.568
228.0, 38351.16783990477, 31905.41647737223, -10812.9022494438, -36649.95421766689, 12685.732565609524, 17208.764518352094, -11134.409741688936, 10793.23271432313, 0.054, 0.96, 0.156, 192.0, 0.0, 0.0, 0.0, 0.0, 0.0, 0.0, 0.0, 0.0, 0.0, 1.657492837576543E9, 0.0, 2022-07-10 18:40:37.576
229.0, 38348.46327882568, 32000.85842619639, -10830.113092674386, -36846.783679340326, 12715.348627012805, 16257.74249526769, -11123.256221205738, 10405.497003256918, 0.054, 0.96, 0.156, 192.0, 0.0, 0.0, 0.0, 0.0, 0.0, 0.0, 0.0, 0.0, 0.0, 1.657492837576614E9, 0.0, 2022-07-10 18:40:37.576
230.0, 38493.369638129436, 32098.848473888454, -10770.255121023074, -36790.21141412394, 12782.605026078823, 15730.084863911256, -11036.33028701905, 10308.289266620788, 0.054, 0.96, 0.156, 192.0, 0.0, 0.0, 0.0, 0.0, 0.0, 0.0, 0.0, 0.0, 0.0, 1.657492837585926E9, 0.0, 2022-07-10 18:40:37.585
231.0, 38503.47262662323, 32009.79912397851, -10745.399981188773, -36579.41211216594, 12753.212482120096, 16611.458851272924, -11047.729676691257, 10687.039576415966, 0.054, 0.96, 0.156, 192.0, 0.0, 0.0, 0.0, 0.0, 0.0, 0.0, 0.0, 0.0, 0.0, 1.65749283758596E9, 0.0, 2022-07-10 18:40:37.585
232.0, 38349.603217792894, 31905.707050050147, -10802.128708616341, -36609.63167066952, 12685.307882464873, 17261.89461492236, -11108.39231114296, 10832.638839797835, 0.054, 0.96, 0.156, 192.0, 0.0, 0.0, 0.0, 0.0, 0.0, 0.0, 0.0, 0.0, 0.0, 1.657492837591953E9, 0.0, 2022-07-10 18:40:37.591
233.0, 38293.142711298795, 31978.484329996627, -10823.228755382152, -36817.502894103876, 12713.962818856577, 16445.608907414546, -11105.643046574956, 10467.970129009502, 0.054, 0.96, 0.156, 192.0, 0.0, 0.0, 0.0, 0.0, 0.0, 0.0, 0.0, 0.0, 0.0, 1.657492837598747E9, 0.0, 2022-07-10 18:40:37.598
234.0, 38422.84988437294, 32094.422828486306, -10776.491257726104, -36812.1384754346, 12774.446639352636, 15711.06352937979, -11054.546958750125, 10276.505086005342, 0.054, 0.96, 0.156, 192.0, 0.0, 0.0, 0.0, 0.0, 0.0, 0.0, 0.0, 0.0, 0.0, 1.657492837598796E9, 0.0, 2022-07-10 18:40:37.598
235.0, 38475.532946054096, 32041.650359827327, -10738.828568318911, -36603.8872723445, 12762.041421179942, 16406.80627904013, -11060.157246608407, 10605.76863357647, 0.054, 0.96, 0.156, 192.0, 0.0, 0.0, 0.0, 0.0, 0.0, 0.0, 0.0, 0.0, 0.0, 1.657492837606086E9, 0.0, 2022-07-10 18:40:37.606
236.0, 38346.20575263569, 31918.335785667397, -10783.397946762794, -36575.52290863072, 12693.645083146703, 17274.188074372778, -11114.829613546088, 10854.67765983077, 0.058, 0.978, 0.152, 192.0, 1.0, 208.0, 30.0, 144.0, 4.0, 192.0, 0.0, 0.0, 0.0, 1.657492837606106E9, 0.0, 2022-07-10 18:40:37.606
237.0, 38266.991170286085, 31967.308457768973, -10813.706912244192, -36775.90629767255, 12710.297132765905, 16662.465532119935, -11096.836459259566, 10578.700671041093, 0.058, 0.978, 0.152, 192.0, 0.0, 0.0, 0.0, 0.0, 0.0, 0.0, 0.0, 0.0, 0.0, 1.657492837614253E9, 0.0, 2022-07-10 18:40:37.614
238.0, 38363.68481679974, 32091.427694729293, -10772.356185001872, -36827.58353085322, 12776.882979498265, 15746.312230385809, -11051.417714526382, 10302.27664736231, 0.058, 0.978, 0.152, 192.0, 0.0, 0.0, 0.0, 0.0, 0.0, 0.0, 0.0, 0.0, 0.0, 1.657492837614289E9, 0.0, 2022-07-10 18:40:37.614
239.0, 38446.22980907319, 32070.86408983041, -10728.569117613926, -36635.91732214896, 12776.279482397973, 16191.44722121325, -11041.18061556585, 10545.642440991693, 0.058, 0.978, 0.152, 192.0, 0.0, 0.0, 0.0, 0.0, 0.0, 0.0, 0.0, 0.0, 0.0, 1.65749283762209E9, 0.0, 2022-07-10 18:40:37.622
240.0, 38349.73732825963, 31948.42123370424, -10761.515588941049, -36546.867972239015, 12706.899667608699, 17214.68773063275, -11088.67807253338, 10872.24613097264, 0.058, 0.978, 0.152, 192.0, 0.0, 0.0, 0.0, 0.0, 0.0, 0.0, 0.0, 0.0, 0.0, 1.657492837622111E9, 0.0, 2022-07-10 18:40:37.622
241.0, 38232.56948382491, 31954.187983773707, -10819.227793124652, -36747.877210125596, 12689.398251700193, 16839.267830761415, -11121.825709560599, 10629.707351888102, 0.058, 0.978, 0.152, 192.0, 0.0, 0.0, 0.0, 0.0, 0.0, 0.0, 0.0, 0.0, 0.0, 1.657492837629107E9, 0.0, 2022-07-10 18:40:37.629
242.0, 38285.07373155042, 32077.63666840037, -10787.197743320197, -36849.801164841796, 12758.666307767191, 15810.640550928183, -11064.873464688477, 10293.492411791374, 0.058, 0.978, 0.152, 192.0, 0.0, 0.0, 0.0, 0.0, 0.0, 0.0, 0.0, 0.0, 0.0, 1.657492837629161E9, 0.0, 2022-07-10 18:40:37.629
243.0, 38388.137625233845, 32087.583194682982, -10729.016152503033, -36677.20099415791, 12780.48161035557, 15989.87918971529, -11033.290449773127, 10453.173274180088, 0.058, 0.978, 0.152, 192.0, 0.0, 0.0, 0.0, 0.0, 0.0, 0.0, 0.0, 0.0, 0.0, 1.657492837636729E9, 0.0, 2022-07-10 18:40:37.636
244.0, 38324.189284347216, 31949.51646918255, -10758.788676117501, -36547.27030363921, 12711.951161855599, 17078.47619992211, -11085.437069587359, 10815.562107033982, 0.058, 0.978, 0.152, 192.0, 0.0, 0.0, 0.0, 0.0, 0.0, 0.0, 0.0, 0.0, 0.0, 1.657492837636749E9, 0.0, 2022-07-10 18:40:37.636
245.0, 38193.07395137238, 31924.437811903696, -10818.534889046538, -36712.53910214175, 12682.849190574789, 16986.588178466343, -11126.854852063043, 10682.815096713914, 0.058, 0.978, 0.152, 192.0, 0.0, 0.0, 0.0, 0.0, 0.0, 0.0, 0.0, 0.0, 0.0, 1.657492837644885E9, 0.0, 2022-07-10 18:40:37.644
246.0, 38216.096248161346, 32051.261609943107, -10798.105394614387, -36861.468775447465, 12740.181415102652, 15910.105813754299, -11088.298092877638, 10307.037568931291, 0.062, 0.98, 0.14400000000000002, 192.0, 1.0, 240.0, 30.0, 160.0, 4.0, 128.0, 0.0, 0.0, 0.0, 1.657492837644933E9, 0.0, 2022-07-10 18:40:37.644
247.0, 38307.82780740593, 32103.49763673516, -10734.537033383493, -36730.46520119491, 12779.81105802191, 15797.140097277177, -11024.528565946648, 10375.746831386905, 0.062, 0.98, 0.14400000000000002, 192.0, 0.0, 0.0, 0.0, 0.0, 0.0, 0.0, 0.0, 0.0, 0.0, 1.657492837651062E9, 0.0, 2022-07-10 18:40:37.651
248.0, 38279.508147181055, 31994.532882515537, -10736.54869038447, -36543.716376270815, 12723.462310250081, 16902.925598970127, -11074.864694459999, 10773.630234435825, 0.062, 0.98, 0.14400000000000002, 192.0, 0.0, 0.0, 0.0, 0.0, 0.0, 0.0, 0.0, 0.0, 0.0, 1.657492837651137E9, 0.0, 2022-07-10 18:40:37.651
249.0, 38145.68825312713, 31931.88094280731, -10809.169508119763, -36680.37494187056, 12665.593643855293, 17101.654958922263, -11139.528291169203, 10715.225126174108, 0.062, 0.98, 0.14400000000000002, 192.0, 0.0, 0.0, 0.0, 0.0, 0.0, 0.0, 0.0, 0.0, 0.0, 1.657492837658529E9, 0.0, 2022-07-10 18:40:37.658
250.0, 38124.00706100548, 32041.62800808287, -10805.079138884443, -36867.056711561294, 12720.064845092875, 16046.65262063177, -11077.345738094538, 10311.79849050027, 0.062, 0.98, 0.14400000000000002, 192.0, 0.0, 0.0, 0.0, 0.0, 0.0, 0.0, 0.0, 0.0, 0.0, 1.657492837666452E9, 0.0, 2022-07-10 18:40:37.666
251.0, 38225.461629088124, 32119.59089274298, -10741.778998587013, -36778.700265729465, 12772.971424218587, 15665.130694524134, -11019.253554255194, 10272.45942025893, 0.062, 0.98, 0.14400000000000002, 192.0, 0.0, 0.0, 0.0, 0.0, 0.0, 0.0, 0.0, 0.0, 0.0, 1.657492837666476E9, 0.0, 2022-07-10 18:40:37.666
252.0, 38246.87460027631, 32022.986653207143, -10732.972411271621, -36570.40435915045, 12732.380656287749, 16686.225436475925, -11051.350659293015, 10697.053157931943, 0.062, 0.98, 0.14400000000000002, 192.0, 0.0, 0.0, 0.0, 0.0, 0.0, 0.0, 0.0, 0.0, 0.0, 1.657492837674358E9, 0.0, 2022-07-10 18:40:37.674
253.0, 38142.71547111458, 31941.715710367647, -10790.215228821664, -36641.97464489635, 12680.055222517876, 17194.2582362006, -11082.754860252722, 10801.256990582586, 0.062, 0.98, 0.14400000000000002, 192.0, 0.0, 0.0, 0.0, 0.0, 0.0, 0.0, 0.0, 0.0, 0.0, 1.657492837674378E9, 0.0, 2022-07-10 18:40:37.674
254.0, 38108.07026720885, 32030.273321899575, -10802.911019672278, -36858.026606801344, 12719.014313103477, 16242.967992182732, -11051.529473248658, 10402.814793922282, 0.062, 0.98, 0.14400000000000002, 192.0, 0.0, 0.0, 0.0, 0.0, 0.0, 0.0, 0.0, 0.0, 0.0, 1.657492837681414E9, 0.0, 2022-07-10 18:40:37.681
255.0, 38213.97283243809, 32127.302244580063, -10753.267795237041, -36832.83619080022, 12775.653633553224, 15610.301865375266, -11003.786147092122, 10251.69464965995, 0.062, 0.98, 0.14400000000000002, 192.0, 0.0, 0.0, 0.0, 0.0, 0.0, 0.0, 0.0, 0.0, 0.0, 1.657492837681501E9, 0.0, 2022-07-10 18:40:37.681
0.0, 38272.802623844465, 32054.43555765576, -10730.424312403717, -36613.87850211603, 12750.239700107539, 16458.46116047635, -11021.332266489539, 10606.796813821413, 0.064, 0.9580000000000001, 0.128, 192.0, 2.0, 0.0, 29.0, 240.0, 4.0, 0.0, 0.0, 0.0, 0.0, 1.657492837689029E9, 0.0, 2022-07-10 18:40:37.689
1.0, 38183.93208789016, 31949.31530348245, -10785.700176441691, -36627.35660402258, 12681.284568462917, 17208.585704396453, -11109.800471043643, 10792.830382922933, 0.064, 0.9580000000000001, 0.128, 192.0, 0.0, 0.0, 0.0, 0.0, 0.0, 0.0, 0.0, 0.0, 0.0, 1.657492837689049E9, 0.0, 2022-07-10 18:40:37.689
2.0, 38112.92059575565, 32001.305461085496, -10825.598040294415, -36855.34439746671, 12685.263178975962, 16418.406834412435, -11162.908215869453, 10417.991628407435, 0.064, 0.9580000000000001, 0.128, 192.0, 0.0, 0.0, 0.0, 0.0, 0.0, 0.0, 0.0, 0.0, 0.0, 1.657492837697114E9, 0.0, 2022-07-10 18:40:37.697
3.0, 38219.449009829645, 32114.606453729448, -10776.267740281552, -36872.06350231928, 12759.023935678475, 15595.505010545852, -11064.80640945511, 10200.218582179377, 0.064, 0.9580000000000001, 0.128, 192.0, 0.0, 0.0, 0.0, 0.0, 0.0, 0.0, 0.0, 0.0, 0.0, 1.657492837697145E9, 0.0, 2022-07-10 18:40:37.697
4.0, 38299.37884800182, 32079.69302889026, -10727.65269609126, -36651.72000547886, 12769.462200339103, 16228.26054433114, -10975.846466522988, 10522.217812802532, 0.064, 0.9580000000000001, 0.128, 192.0, 0.0, 0.0, 0.0, 0.0, 0.0, 0.0, 0.0, 0.0, 0.0, 1.657492837704218E9, 0.0, 2022-07-10 18:40:37.704
5.0, 38230.51312333502, 31967.531975213526, -10768.645795422291, -36591.392647193985, 12701.065862305864, 17194.07942224496, -11043.862824900489, 10812.164641876774, 0.064, 0.9580000000000001, 0.128, 192.0, 0.0, 0.0, 0.0, 0.0, 0.0, 0.0, 0.0, 0.0, 0.0, 1.657492837704238E9, 0.0, 2022-07-10 18:40:37.704
6.0, 38144.88359032674, 31997.572719761458, -10810.66707499827, -36805.85763524266, 12700.931751839133, 16640.6278777871, -11088.834534744565, 10522.262516291443, 0.064, 0.9580000000000001, 0.128, 192.0, 0.0, 0.0, 0.0, 0.0, 0.0, 0.0, 0.0, 0.0, 0.0, 1.657492837711818E9, 0.0, 2022-07-10 18:40:37.711
7.0, 38215.31393710541, 32118.808581687044, -10768.802257633479, -36879.841909389725, 12776.547703331436, 15653.776008340838, -11016.571344920558, 10214.54605037523, 0.064, 0.9580000000000001, 0.128, 192.0, 0.0, 0.0, 0.0, 0.0, 0.0, 0.0, 0.0, 0.0, 0.0, 1.657492837711867E9, 0.0, 2022-07-10 18:40:37.711
8.0, 38315.76267668756, 32103.54234022407, -10723.495271622573, -36687.14752044052, 12789.377604648782, 16026.379588410806, -10986.865876539456, 10439.78457925136, 0.064, 0.9580000000000001, 0.128, 192.0, 0.0, 0.0, 0.0, 0.0, 0.0, 0.0, 0.0, 0.0, 0.0, 1.657492837718628E9, 0.0, 2022-07-10 18:40:37.718
9.0, 38257.961065526135, 31972.292896782506, -10762.230844763619, -36585.245917468776, 12712.264086277974, 17093.00483381806, -11058.346755307526, 10776.424202492739, 0.064, 0.9580000000000001, 0.128, 192.0, 0.0, 0.0, 0.0, 0.0, 0.0, 0.0, 0.0, 0.0, 0.0, 1.657492837726765E9, 0.0, 2022-07-10 18:40:37.726
10.0, 38151.41029970769, 31972.00232410459, -10814.75744423359, -36780.55546051925, 12688.32536796634, 16795.27959767337, -11100.591552328056, 10562.85328422228, 0.066, 0.9580000000000001, 0.13, 192.0, 2.0, 16.0, 29.0, 240.0, 4.0, 16.0, 0.0, 0.0, 0.0, 1.657492837726786E9, 0.0, 2022-07-10 18:40:37.726
11.0, 38209.524835291486, 32095.74158140917, -10786.080156097432, -36896.82923517576, 12747.848063450821, 15746.893375741647, -11073.367127581492, 10250.442951970454, 0.066, 0.9580000000000001, 0.13, 192.0, 0.0, 0.0, 0.0, 0.0, 0.0, 0.0, 0.0, 0.0, 0.0, 1.657492837734005E9, 0.0, 2022-07-10 18:40:37.734
12.0, 38321.41766803475, 32124.68709047879, -10732.815949060434, -36744.39033799057, 12775.7653922755, 15821.592905711283, -11031.189385794329, 10350.265842707855, 0.066, 0.9580000000000001, 0.13, 192.0, 0.0, 0.0, 0.0, 0.0, 0.0, 0.0, 0.0, 0.0, 0.0, 1.657492837734102E9, 0.0, 2022-07-10 18:40:37.734
13.0, 38278.21174600265, 32005.842865209925, -10747.74691435658, -36583.81540582364, 12716.533269468937, 16936.564974375364, -11058.346755307526, 10751.166731258241, 0.066, 0.9580000000000001, 0.13, 192.0, 0.0, 0.0, 0.0, 0.0, 0.0, 0.0, 0.0, 0.0, 0.0, 1.657492837741526E9, 0.0, 2022-07-10 18:40:37.741
14.0, 38149.465697940075, 31970.37064675935, -10802.173412105252, -36736.34370998666, 12686.8948563212, 16958.02264905246, -11085.414717842903, 10678.344747822852, 0.066, 0.9580000000000001, 0.13, 192.0, 0.0, 0.0, 0.0, 0.0, 0.0, 0.0, 0.0, 0.0, 0.0, 1.65749283774157E9, 0.0, 2022-07-10 18:40:37.741
15.0, 38168.57643944937, 32078.351924222938, -10792.47275501165, -36902.39481954513, 12747.892766939733, 15890.279816422442, -11042.968755122276, 10300.935542694991, 0.066, 0.9580000000000001, 0.13, 192.0, 0.0, 0.0, 0.0, 0.0, 0.0, 0.0, 0.0, 0.0, 0.0, 1.657492837749405E9, 0.0, 2022-07-10 18:40:37.749
16.0, 38284.42553096122, 32133.60543651646, -10732.212451960142, -36784.28820184329, 12792.909180272722, 15693.964444871479, -10995.314835943562, 10312.51374632284, 0.066, 0.9580000000000001, 0.13, 192.0, 0.0, 0.0, 0.0, 0.0, 0.0, 0.0, 0.0, 0.0, 0.0, 1.657492837749429E9, 0.0, 2022-07-10 18:40:37.749
17.0, 38244.259446175034, 32026.22765615316, -10726.9821437576, -36592.97962105031, 12741.701333725612, 16750.7549227184, -11025.914374102877, 10703.02107370151, 0.066, 0.9580000000000001, 0.13, 192.0, 0.0, 0.0, 0.0, 0.0, 0.0, 0.0, 0.0, 0.0, 0.0, 1.657492837756367E9, 0.0, 2022-07-10 18:40:37.756
18.0, 38084.84680471978, 31951.729291883625, -10791.198705577697, -36691.68492456495, 12690.649949389692, 17054.13515021028, -11071.66839500289, 10719.69547506517, 0.066, 0.9580000000000001, 0.13, 192.0, 0.0, 0.0, 0.0, 0.0, 0.0, 0.0, 0.0, 0.0, 0.0, 1.657492837756388E9, 0.0, 2022-07-10 18:40:37.756
19.0, 38092.89343272369, 32050.702816331723, -10800.429976037738, -36879.81955764527, 12735.196976089119, 16072.334775010917, -11051.75299069321, 10352.880996809125, 0.066, 0.9580000000000001, 0.13, 192.0, 0.0, 0.0, 0.0, 0.0, 0.0, 0.0, 0.0, 0.0, 0.0, 1.657492837763978E9, 0.0, 2022-07-10 18:40:37.763
20.0, 38232.01069021353, 32139.394538330384, -10741.26490846454, -36814.46305685795, 12794.049119239942, 15607.642007785083, -11004.210830236772, 10263.116391076612, 0.064, 0.9540000000000001, 0.132, 192.0, 2.0, 0.0, 29.0, 208.0, 4.0, 32.0, 0.0, 0.0, 0.0, 1.657492837764064E9, 0.0, 2022-07-10 18:40:37.764
21.0, 38226.37805061079, 32043.930237761768, -10727.004495502055, -36602.61322291055, 12755.939394943643, 16539.12860621555, -11019.365312977472, 10629.550889676917, 0.064, 0.9540000000000001, 0.132, 192.0, 0.0, 0.0, 0.0, 0.0, 0.0, 0.0, 0.0, 0.0, 0.0, 1.657492837771886E9, 0.0, 2022-07-10 18:40:37.771
22.0, 38065.356083554754, 31939.03350103301, -10794.931446901734, -36657.822031715164, 12681.910417307667, 17102.683139167206, -11073.501238048226, 10706.060910947432, 0.064, 0.9540000000000001, 0.132, 192.0, 0.0, 0.0, 0.0, 0.0, 0.0, 0.0, 0.0, 0.0, 0.0, 1.657492837771907E9, 0.0, 2022-07-10 18:40:37.771
23.0, 38036.16470529613, 32017.82340023797, -10818.624296024358, -36870.81180462978, 12709.447766476604, 16221.912648905833, -11080.072650918086, 10323.667266806038, 0.064, 0.9540000000000001, 0.132, 192.0, 0.0, 0.0, 0.0, 0.0, 0.0, 0.0, 0.0, 0.0, 0.0, 1.657492837779142E9, 0.0, 2022-07-10 18:40:37.779
24.0, 38191.53168100496, 32138.545172041082, -10752.932519070211, -36842.2462752159, 12786.740098803057, 15559.473998483898, -11008.994103550209, 10240.138797776557, 0.064, 0.9540000000000001, 0.132, 192.0, 0.0, 0.0, 0.0, 0.0, 0.0, 0.0, 0.0, 0.0, 0.0, 1.657492837786008E9, 0.0, 2022-07-10 18:40:37.786
25.0, 38226.914492477714, 32073.702761376237, -10720.611896587838, -36621.187522552915, 12771.585616062357, 16320.886173353932, -10999.204039478784, 10594.324540415351, 0.064, 0.9540000000000001, 0.132, 192.0, 0.0, 0.0, 0.0, 0.0, 0.0, 0.0, 0.0, 0.0, 0.0, 1.657492837786027E9, 0.0, 2022-07-10 18:40:37.786
26.0, 38074.386188314704, 31951.326960483428, -10782.861504895867, -36609.27404275823, 12693.041586046409, 17118.329360285923, -11073.098906648029, 10789.097641598897, 0.064, 0.9540000000000001, 0.132, 192.0, 0.0, 0.0, 0.0, 0.0, 0.0, 0.0, 0.0, 0.0, 0.0, 1.657492837793998E9, 0.0, 2022-07-10 18:40:37.793
27.0, 38019.28913823237, 32010.357917589896, -10818.490185557626, -36814.79833302478, 12703.03281581793, 16433.29309621967, -11086.599360299035, 10451.07221020129, 0.064, 0.9540000000000001, 0.132, 192.0, 0.0, 0.0, 0.0, 0.0, 0.0, 0.0, 0.0, 0.0, 0.0, 1.657492837794038E9, 0.0, 2022-07-10 18:40:37.794
28.0, 38174.991390108036, 32139.662759263847, -10770.635100678814, -36841.62042637115, 12771.272691639984, 15580.864617927626, -11030.071798571564, 10220.938649289448, 0.064, 0.9540000000000001, 0.132, 192.0, 0.0, 0.0, 0.0, 0.0, 0.0, 0.0, 0.0, 0.0, 0.0, 1.657492837802932E9, 0.0, 2022-07-10 18:40:37.802
29.0, 38256.083518991894, 32102.93884312378, -10727.02684724651, -36637.906627405486, 12775.05013645293, 16106.354130071895, -11003.674388369845, 10501.765966625926, 0.064, 0.9540000000000001, 0.132, 192.0, 0.0, 0.0, 0.0, 0.0, 0.0, 0.0, 0.0, 0.0, 0.0, 1.657492837802979E9, 0.0, 2022-07-10 18:40:37.802
30.0, 38104.672802051646, 31957.831318119923, -10775.932464114721, -36576.036998753196, 12704.37392048525, 17053.688115321173, -11078.060993917108, 10763.236673264108, 0.068, 0.974, 0.148, 192.0, 2.0, 32.0, 30.0, 112.0, 4.0, 160.0, 0.0, 0.0, 0.0, 1.657492837808941E9, 0.0, 2022-07-10 18:40:37.808
31.0, 37998.27849844438, 31971.57764095994, -10825.32981936095, -36774.69930347196, 12700.819993116856, 16602.38404302407, -11093.550752824636, 10508.359731240242, 0.068, 0.974, 0.148, 192.0, 0.0, 0.0, 0.0, 0.0, 0.0, 0.0, 0.0, 0.0, 0.0, 1.657492837808963E9, 0.0, 2022-07-10 18:40:37.808
32.0, 38137.03812802293, 32109.26438680463, -10783.33089152943, -36849.28707471932, 12769.350441616827, 15641.259031445865, -11021.779301378645, 10227.2641929703, 0.068, 0.974, 0.148, 192.0, 0.0, 0.0, 0.0, 0.0, 0.0, 0.0, 0.0, 0.0, 0.0, 1.657492837817259E9, 0.0, 2022-07-10 18:40:37.817
33.0, 38253.73658582409, 32110.69489844977, -10733.240632205085, -36677.08923543563, 12786.605988336325, 15901.679206094648, -10995.918333043854, 10404.245305567421, 0.068, 0.974, 0.148, 192.0, 0.0, 0.0, 0.0, 0.0, 0.0, 0.0, 0.0, 0.0, 0.0, 1.657492837817315E9, 0.0, 2022-07-10 18:40:37.817
34.0, 38119.98374700353, 31968.94013511421, -10759.101600539876, -36560.86016426804, 12724.8034149174, 16953.194672250112, -11045.293336545628, 10759.36982147334, 0.068, 0.974, 0.148, 192.0, 0.0, 0.0, 0.0, 0.0, 0.0, 0.0, 0.0, 0.0, 0.0, 1.657492837824116E9, 0.0, 2022-07-10 18:40:37.824
35.0, 37982.07348371428, 31957.160765786266, -10807.761348219079, -36721.88213132407, 12705.357397241283, 16787.70235630302, -11080.474982318281, 10609.322560944864, 0.068, 0.974, 0.148, 192.0, 0.0, 0.0, 0.0, 0.0, 0.0, 0.0, 0.0, 0.0, 0.0, 1.65749283782417E9, 0.0, 2022-07-10 18:40:37.824
36.0, 38115.08871496782, 32092.25470927414, -10792.763327689569, -36839.04997575879, 12759.739191501045, 15774.296614443854, -11047.483807502247, 10254.712135161417, 0.068, 0.974, 0.148, 192.0, 0.0, 0.0, 0.0, 0.0, 0.0, 0.0, 0.0, 0.0, 0.0, 1.657492837831571E9, 0.0, 2022-07-10 18:40:37.831
37.0, 38281.05041754847, 32128.39748005837, -10747.322231211929, -36703.84427354864, 12790.517543616003, 15769.245120196954, -11002.46739416926, 10344.499092638385, 0.068, 0.974, 0.148, 192.0, 0.0, 0.0, 0.0, 0.0, 0.0, 0.0, 0.0, 0.0, 0.0, 1.657492837831658E9, 0.0, 2022-07-10 18:40:37.831
38.0, 38180.62402971077, 31997.28214708354, -10754.407734204262, -36550.488954840774, 12735.040513877932, 16821.85582183073, -11040.778284165655, 10726.021018746022, 0.068, 0.974, 0.148, 192.0, 0.0, 0.0, 0.0, 0.0, 0.0, 0.0, 0.0, 0.0, 0.0, 1.657492837838869E9, 0.0, 2022-07-10 18:40:37.838
39.0, 38010.99664103945, 31948.711806382158, -10813.416339566273, -36677.69273253593, 12696.081423292331, 16933.323971429345, -11069.097944390529, 10663.860817415813, 0.068, 0.974, 0.148, 192.0, 0.0, 0.0, 0.0, 0.0, 0.0, 0.0, 0.0, 0.0, 0.0, 1.657492837846603E9, 0.0, 2022-07-10 18:40:37.846
40.0, 38104.27047065145, 32074.932107321278, -10806.911981929778, -36832.67972858903, 12751.200825119118, 15926.981380818055, -11047.595566224523, 10274.918112149015, 0.068, 0.99, 0.162, 192.0, 2.0, 32.0, 30.0, 240.0, 5.0, 16.0, 0.0, 0.0, 0.0, 1.657492837846625E9, 0.0, 2022-07-10 18:40:37.846
41.0, 38315.293290054, 32144.758956999656, -10749.9373853132, -36726.35248021513, 12797.759508819523, 15673.602005672696, -11001.640379624412, 10295.682882747995, 0.068, 0.99, 0.162, 192.0, 0.0, 0.0, 0.0, 0.0, 0.0, 0.0, 0.0, 0.0, 0.0, 1.65749283785383E9, 0.0, 2022-07-10 18:40:37.853
42.0, 38259.83861206038, 32020.57266480597, -10748.752742857068, -36551.09245194107, 12753.704220498112, 16662.7337530534, -11020.7511211337, 10690.392338084263, 0.068, 0.99, 0.162, 192.0, 0.0, 0.0, 0.0, 0.0, 0.0, 0.0, 0.0, 0.0, 0.0, 1.657492837853865E9, 0.0, 2022-07-10 18:40:37.853
43.0, 38063.88086842071, 31930.383375928806, -10813.259877355085, -36643.11458386357, 12693.622731402247, 17038.824205258396, -11068.494447290237, 10722.332980910896, 0.068, 0.99, 0.162, 192.0, 0.0, 0.0, 0.0, 0.0, 0.0, 0.0, 0.0, 0.0, 0.0, 1.657492837861168E9, 0.0, 2022-07-10 18:40:37.861
44.0, 38112.138284699715, 32042.09739471643, -10818.445482068717, -36817.078210959226, 12734.884051666744, 16109.639836506825, -11039.258365542695, 10349.215310718455, 0.068, 0.99, 0.162, 192.0, 0.0, 0.0, 0.0, 0.0, 0.0, 0.0, 0.0, 0.0, 0.0, 1.657492837861189E9, 0.0, 2022-07-10 18:40:37.861
45.0, 38343.14356364532, 32145.340102355494, -10763.191969775196, -36756.57203871871, 12790.539895360458, 15607.619656040628, -11005.75310060419, 10251.69464965995, 0.068, 0.99, 0.162, 192.0, 0.0, 0.0, 0.0, 0.0, 0.0, 0.0, 0.0, 0.0, 0.0, 1.657492837869136E9, 0.0, 2022-07-10 18:40:37.869
46.0, 38344.32820610145, 32046.835964540955, -10741.667239864737, -36561.977751490806, 12757.749886244523, 16465.59136695759, -11004.121423258952, 10634.82590136837, 0.068, 0.99, 0.162, 192.0, 0.0, 0.0, 0.0, 0.0, 0.0, 0.0, 0.0, 0.0, 0.0, 1.657492837869164E9, 0.0, 2022-07-10 18:40:37.869
47.0, 38142.51430541448, 31922.068526991432, -10799.312388814973, -36597.96406006385, 12690.471135434049, 17103.86778162334, -11048.847263914022, 10786.594246219904, 0.068, 0.99, 0.162, 192.0, 0.0, 0.0, 0.0, 0.0, 0.0, 0.0, 0.0, 0.0, 0.0, 1.657492837877168E9, 0.0, 2022-07-10 18:40:37.877
48.0, 38149.465697940075, 32010.17910363425, -10821.23945012563, -36791.127835646614, 12712.554658955893, 16324.149528044407, -11040.554766721103, 10444.232576397966, 0.068, 0.99, 0.162, 192.0, 0.0, 0.0, 0.0, 0.0, 0.0, 0.0, 0.0, 0.0, 0.0, 1.657492837877188E9, 0.0, 2022-07-10 18:40:37.877
49.0, 38369.85389826941, 32144.334273855005, -10765.516551198549, -36784.15409137656, 12787.187133692161, 15607.507897318352, -10972.180780432318, 10258.2213590409, 0.068, 0.99, 0.162, 192.0, 0.0, 0.0, 0.0, 0.0, 0.0, 0.0, 0.0, 0.0, 0.0, 1.65749283788521E9, 0.0, 2022-07-10 18:40:37.885
50.0, 38418.692459904254, 32083.11284579192, -10727.473882135617, -36588.4869204148, 12777.844104509844, 16275.199207687285, -10967.062230952053, 10567.927130213635, 0.078, 0.986, 0.182, 192.0, 2.0, 112.0, 30.0, 208.0, 5.0, 176.0, 0.0, 0.0, 0.0, 1.657492837885231E9, 0.0, 2022-07-10 18:40:37.885
51.0, 38209.70364924713, 31944.84495459139, -10774.569007702949, -36565.397568392465, 12707.927847853643, 17113.367273016844, -11038.721923675766, 10814.645685511314, 0.078, 0.986, 0.182, 192.0, 0.0, 0.0, 0.0, 0.0, 0.0, 0.0, 0.0, 0.0, 0.0, 1.657492837891774E9, 0.0, 2022-07-10 18:40:37.891
52.0, 38155.72418638756, 31992.18594934773, -10813.14811863281, -36759.23189630889, 12711.861754877777, 16530.32201890016, -11042.8569964, 10529.75035068397, 0.078, 0.986, 0.182, 192.0, 0.0, 0.0, 0.0, 0.0, 0.0, 0.0, 0.0, 0.0, 0.0, 1.657492837891794E9, 0.0, 2022-07-10 18:40:37.891
53.0, 38372.3572936484, 32135.12535513942, -10774.233731536118, -36804.561234064255, 12777.799401020933, 15654.714781607961, -10983.960149760265, 10261.46236198692, 0.078, 0.986, 0.182, 192.0, 0.0, 0.0, 0.0, 0.0, 0.0, 0.0, 0.0, 0.0, 0.0, 1.657492837899119E9, 0.0, 2022-07-10 18:40:37.899
54.0, 38476.583478043496, 32110.91841589432, -10728.412655402739, -36618.28179577372, 12789.24349418205, 16089.590321730415, -10955.528730813114, 10498.994350313467, 0.078, 0.986, 0.182, 192.0, 0.0, 0.0, 0.0, 0.0, 0.0, 0.0, 0.0, 0.0, 0.0, 1.65749283789915E9, 0.0, 2022-07-10 18:40:37.899
55.0, 38288.40414147427, 31953.495079695593, -10772.177371046231, -36546.08566118308, 12709.559525198882, 17078.364441199832, -11018.314780988072, 10806.487298785127, 0.078, 0.986, 0.182, 192.0, 0.0, 0.0, 0.0, 0.0, 0.0, 0.0, 0.0, 0.0, 0.0, 1.657492837909777E9, 0.0, 2022-07-10 18:40:37.909
56.0, 38185.00497162402, 31969.118949069853, -10822.245278626118, -36730.93458782847, 12695.723795381045, 16735.48868125542, -11043.393438266927, 10599.510145128983, 0.078, 0.986, 0.182, 192.0, 0.0, 0.0, 0.0, 0.0, 0.0, 0.0, 0.0, 0.0, 0.0, 1.657492837916477E9, 0.0, 2022-07-10 18:40:37.916
57.0, 38378.414616395785, 32123.167171855832, -10788.650606709793, -36821.86148427266, 12768.322261371883, 15756.50462585743, -10990.486859141214, 10275.499257504853, 0.078, 0.986, 0.182, 192.0, 0.0, 0.0, 0.0, 0.0, 0.0, 0.0, 0.0, 0.0, 0.0, 1.657492837916541E9, 0.0, 2022-07-10 18:40:37.916
58.0, 38528.57363564654, 32129.157439369854, -10739.387361930296, -36663.968761440374, 12788.639997081757, 15924.366226716786, -10957.74155351419, 10429.636887268649, 0.078, 0.986, 0.182, 192.0, 0.0, 0.0, 0.0, 0.0, 0.0, 0.0, 0.0, 0.0, 0.0, 1.6574928379224E9, 0.0, 2022-07-10 18:40:37.922
59.0, 38369.00453198011, 31969.409521747773, -10762.32025174144, -36540.96711170282, 12727.127996340752, 16981.31316677489, -10995.98538827722, 10807.426072052249, 0.078, 0.986, 0.182, 192.0, 0.0, 0.0, 0.0, 0.0, 0.0, 0.0, 0.0, 0.0, 0.0, 1.657492837922435E9, 0.0, 2022-07-10 18:40:37.922
60.0, 38203.19929161064, 31939.189963244196, -10818.110205901887, -36697.33991591215, 12695.522629680949, 16901.15981115816, -11037.447874241814, 10674.232026843076, 0.082, 0.966, 0.202, 192.0, 2.0, 144.0, 30.0, 48.0, 6.0, 80.0, 0.0, 0.0, 0.0, 1.657492837929562E9, 0.0, 2022-07-10 18:40:37.929
61.0, 38363.34954063291, 32082.77756962509, -10798.66418822577, -36825.951853507984, 12748.675077995667, 15898.974645015556, -11003.36146394747, 10317.811109758748, 0.082, 0.966, 0.202, 192.0, 0.0, 0.0, 0.0, 0.0, 0.0, 0.0, 0.0, 0.0, 0.0, 1.657492837929626E9, 0.0, 2022-07-10 18:40:37.929
62.0, 38559.39669125041, 32135.8853144509, -10744.014173032543, -36708.60519511762, 12787.29889241444, 15793.474411186507, -10958.88149248141, 10372.930511585535, 0.082, 0.966, 0.202, 192.0, 0.0, 0.0, 0.0, 0.0, 0.0, 0.0, 0.0, 0.0, 0.0, 1.657492837936121E9, 0.0, 2022-07-10 18:40:37.936
63.0, 38443.726413694196, 31993.415295292772, -10754.139513270798, -36552.79118451967, 12732.648877221212, 16828.159013767126, -10992.297350442095, 10757.425219705729, 0.082, 0.966, 0.202, 192.0, 0.0, 0.0, 0.0, 0.0, 0.0, 0.0, 0.0, 0.0, 0.0, 1.657492837936142E9, 0.0, 2022-07-10 18:40:37.936
64.0, 38241.48782986258, 31921.442678146683, -10818.087854157431, -36673.64706678952, 12683.765612097457, 17035.694961034653, -11049.875444158966, 10728.345600169374, 0.082, 0.966, 0.202, 192.0, 0.0, 0.0, 0.0, 0.0, 0.0, 0.0, 0.0, 0.0, 0.0, 1.657492837944271E9, 0.0, 2022-07-10 18:40:37.944
65.0, 38350.43023233774, 32047.23829594115, -10814.131595388842, -36836.59128386871, 12732.224194076562, 16064.668126662747, -11020.058217055586, 10356.703145110983, 0.082, 0.966, 0.202, 192.0, 0.0, 0.0, 0.0, 0.0, 0.0, 0.0, 0.0, 0.0, 0.0, 1.6574928379443E9, 0.0, 2022-07-10 18:40:37.944
66.0, 38575.91463040288, 32131.772593471123, -10752.820760347935, -36757.868439897116, 12791.881000027777, 15702.34634904222, -10958.54621631458, 10320.716836537938, 0.082, 0.966, 0.202, 192.0, 0.0, 0.0, 0.0, 0.0, 0.0, 0.0, 0.0, 0.0, 0.0, 1.657492837953698E9, 0.0, 2022-07-10 18:40:37.953
67.0, 38504.92549001283, 32007.072211154966, -10744.260042221553, -36568.86208878304, 12748.384505317748, 16657.279927406304, -10987.089393984008, 10702.775204512502, 0.082, 0.966, 0.202, 192.0, 0.0, 0.0, 0.0, 0.0, 0.0, 0.0, 0.0, 0.0, 0.0, 1.657492837953725E9, 0.0, 2022-07-10 18:40:37.953
68.0, 38287.4877199516, 31902.93543373769, -10802.32987431644, -36634.64327271501, 12688.303016221884, 17134.221450593646, -11039.683048687346, 10786.817763664456, 0.082, 0.966, 0.202, 192.0, 0.0, 0.0, 0.0, 0.0, 0.0, 0.0, 0.0, 0.0, 0.0, 1.657492837959816E9, 0.0, 2022-07-10 18:40:37.959
69.0, 38328.7490402161, 32013.15188564681, -10809.549487775505, -36823.38140289562, 12727.910307396687, 16244.130282894408, -11021.064045556075, 10419.176270863565, 0.082, 0.966, 0.202, 192.0, 0.0, 0.0, 0.0, 0.0, 0.0, 0.0, 0.0, 0.0, 0.0, 1.657492837959836E9, 0.0, 2022-07-10 18:40:37.959
70.0, 38558.25675228319, 32131.54907602657, -10752.776056859024, -36789.27264085682, 12791.7692413055, 15646.087008248212, -10968.716260041745, 10281.08719361868, 0.08600000000000001, 0.9540000000000001, 0.2, 192.0, 2.0, 176.0, 29.0, 208.0, 6.0, 64.0, 0.0, 0.0, 0.0, 1.65749283796669E9, 0.0, 2022-07-10 18:40:37.966
71.0, 38555.52983945964, 32039.415185381793, -10736.973373529121, -36596.75706586326, 12755.268842609983, 16440.02097130072, -10990.799783563589, 10621.906593073201, 0.08600000000000001, 0.9540000000000001, 0.2, 192.0, 0.0, 0.0, 0.0, 0.0, 0.0, 0.0, 0.0, 0.0, 0.0, 1.657492837973798E9, 0.0, 2022-07-10 18:40:37.973
72.0, 38326.558569259476, 31913.284291420496, -10794.618522479359, -36614.258481771765, 12687.140725510208, 17147.498386800096, -11050.166016836885, 10800.56408650447, 0.08600000000000001, 0.9540000000000001, 0.2, 192.0, 0.0, 0.0, 0.0, 0.0, 0.0, 0.0, 0.0, 0.0, 0.0, 1.657492837973819E9, 0.0, 2022-07-10 18:40:37.973
73.0, 38298.70829566816, 31991.314231313972, -10816.590287278925, -36811.80319926777, 12713.739301412023, 16422.363093181026, -11039.168958564873, 10471.389945911164, 0.08600000000000001, 0.9540000000000001, 0.2, 192.0, 0.0, 0.0, 0.0, 0.0, 0.0, 0.0, 0.0, 0.0, 0.0, 1.65749283798193E9, 0.0, 2022-07-10 18:40:37.981
74.0, 38522.650423365885, 32129.984453914698, -10765.069516309442, -36826.376536652635, 12784.504924357525, 15647.226947215433, -10977.053460723575, 10254.846245628149, 0.08600000000000001, 0.9540000000000001, 0.2, 192.0, 0.0, 0.0, 0.0, 0.0, 0.0, 0.0, 0.0, 0.0, 0.0, 1.657492837981959E9, 0.0, 2022-07-10 18:40:37.981
75.0, 38574.05943561309, 32076.563784666516, -10726.557460612948, -36631.312862791165, 12779.364023132805, 16233.133224622397, -10963.351841372472, 10545.0389438914, 0.08600000000000001, 0.9540000000000001, 0.2, 192.0, 0.0, 0.0, 0.0, 0.0, 0.0, 0.0, 0.0, 0.0, 0.0, 1.657492837988913E9, 0.0, 2022-07-10 18:40:37.988
76.0, 38356.5546103185, 31929.735175339603, -10777.251217037585, -36589.91743205994, 12699.143612282707, 17126.53245050102, -11041.940574877332, 10806.979037163144, 0.08600000000000001, 0.9540000000000001, 0.2, 192.0, 0.0, 0.0, 0.0, 0.0, 0.0, 0.0, 0.0, 0.0, 0.0, 1.657492837988964E9, 0.0, 2022-07-10 18:40:37.988
77.0, 38275.462481434646, 31971.75645491558, -10820.278325114052, -36783.34942857616, 12695.70144363659, 16614.118708863105, -11070.975490924775, 10532.790187929892, 0.08600000000000001, 0.9540000000000001, 0.2, 192.0, 0.0, 0.0, 0.0, 0.0, 0.0, 0.0, 0.0, 0.0, 0.0, 1.65749283799661E9, 0.0, 2022-07-10 18:40:37.996
78.0, 38474.258896620144, 32117.847456675467, -10782.7944496625, -36849.33177820823, 12764.656575281213, 15687.325976768254, -11008.882344827933, 10238.350658220132, 0.08600000000000001, 0.9540000000000001, 0.2, 192.0, 0.0, 0.0, 0.0, 0.0, 0.0, 0.0, 0.0, 0.0, 0.0, 1.657492837996651E9, 0.0, 2022-07-10 18:40:37.996
79.0, 38583.08954037303, 32113.64532871787, -10727.049198990966, -36667.76855799777, 12782.806191778922, 16024.613800598838, -10983.803687549078, 10437.907032717114, 0.08600000000000001, 0.9540000000000001, 0.2, 192.0, 0.0, 0.0, 0.0, 0.0, 0.0, 0.0, 0.0, 0.0, 0.0, 1.657492838004308E9, 0.0, 2022-07-10 18:40:38.004
80.0, 38402.44274168524, 31963.061626322466, -10760.956795329666, -36565.79989979266, 12715.527440968448, 17050.76003679753, -11009.03880703912, 10790.505801499583, 0.082, 0.9560000000000001, 0.192, 192.0, 2.0, 144.0, 29.0, 224.0, 6.0, 0.0, 0.0, 0.0, 0.0, 1.657492838004329E9, 0.0, 2022-07-10 18:40:38.004
81.0, 38270.47804242111, 31960.46882396565, -10816.9032117013, -36750.738233415876, 12692.974530813042, 16791.882132516163, -11049.271947058673, 10606.305075443397, 0.082, 0.9560000000000001, 0.192, 192.0, 0.0, 0.0, 0.0, 0.0, 0.0, 0.0, 0.0, 0.0, 0.0, 1.657492838012741E9, 0.0, 2022-07-10 18:40:38.012
82.0, 38417.10548604793, 32112.505389750648, -10781.878028139834, -36862.80988011478, 12768.232854394062, 15772.039088253867, -11001.50626915768, 10264.144571321556, 0.082, 0.9560000000000001, 0.192, 192.0, 0.0, 0.0, 0.0, 0.0, 0.0, 0.0, 0.0, 0.0, 0.0, 1.657492838012841E9, 0.0, 2022-07-10 18:40:38.012
83.0, 38568.69501694382, 32144.781308744114, -10726.31159142394, -36702.65963109251, 12792.730366317079, 15850.337249080809, -10993.7949173206, 10388.442622237519, 0.082, 0.9560000000000001, 0.192, 192.0, 0.0, 0.0, 0.0, 0.0, 0.0, 0.0, 0.0, 0.0, 0.0, 1.65749283801883E9, 0.0, 2022-07-10 18:40:38.018
84.0, 38433.80223915604, 31994.912862171277, -10751.569062658438, -36562.00010323526, 12721.160080571186, 16913.989712475504, -11060.134894863952, 10747.45634167866, 0.082, 0.9560000000000001, 0.192, 192.0, 0.0, 0.0, 0.0, 0.0, 0.0, 0.0, 0.0, 0.0, 0.0, 1.65749283801885E9, 0.0, 2022-07-10 18:40:38.018
85.0, 38263.25842896204, 31951.438719205707, -10808.342493574917, -36713.813151575705, 12691.789888356912, 16930.5970586058, -11044.689839445335, 10655.948299878633, 0.082, 0.9560000000000001, 0.192, 192.0, 0.0, 0.0, 0.0, 0.0, 0.0, 0.0, 0.0, 0.0, 0.0, 1.657492838026289E9, 0.0, 2022-07-10 18:40:38.026
86.0, 38372.08907271494, 32088.030229572087, -10790.438746266216, -36869.18012728455, 12746.149330872218, 15898.706424082093, -11012.056292540587, 10275.096926104658, 0.082, 0.9560000000000001, 0.192, 192.0, 0.0, 0.0, 0.0, 0.0, 0.0, 0.0, 0.0, 0.0, 0.0, 1.657492838034379E9, 0.0, 2022-07-10 18:40:38.034
87.0, 38556.84859238251, 32154.660779793358, -10726.870385035323, -36751.67700668299, 12796.887790785766, 15709.565962501285, -10946.856253964455, 10309.384502099098, 0.082, 0.9560000000000001, 0.192, 192.0, 0.0, 0.0, 0.0, 0.0, 0.0, 0.0, 0.0, 0.0, 0.0, 1.657492838034434E9, 0.0, 2022-07-10 18:40:38.034
88.0, 38477.65636177735, 32026.361766619895, -10733.106521738353, -36576.39462666448, 12739.28734532444, 16750.576108762754, -10976.919350256843, 10712.364102883828, 0.082, 0.9560000000000001, 0.192, 192.0, 0.0, 0.0, 0.0, 0.0, 0.0, 0.0, 0.0, 0.0, 0.0, 1.657492838042007E9, 0.0, 2022-07-10 18:40:38.042
89.0, 38278.47996693611, 31950.164669771755, -10794.23854282362, -36682.94539248293, 12687.677167377135, 17048.27899316299, -11034.676257929357, 10730.066684492433, 0.082, 0.9560000000000001, 0.192, 192.0, 0.0, 0.0, 0.0, 0.0, 0.0, 0.0, 0.0, 0.0, 0.0, 1.657492838042029E9, 0.0, 2022-07-10 18:40:38.042
90.0, 38342.897694456304, 32066.505499661627, -10800.631141737837, -36867.414339472576, 12727.463272507583, 16080.090830336909, -11016.146661775907, 10350.2434909634, 0.074, 0.9380000000000001, 0.182, 192.0, 2.0, 80.0, 29.0, 80.0, 5.0, 176.0, 0.0, 0.0, 0.0, 1.657492838048722E9, 0.0, 2022-07-10 18:40:38.048
91.0, 38539.25776949618, 32160.65104730738, -10735.051123505966, -36801.09671367368, 12790.29402617145, 15636.81103429926, -10962.435419849804, 10278.092059861669, 0.074, 0.9380000000000001, 0.182, 192.0, 0.0, 0.0, 0.0, 0.0, 0.0, 0.0, 0.0, 0.0, 0.0, 1.657492838048745E9, 0.0, 2022-07-10 18:40:38.048
92.0, 38504.27728942362, 32049.138194219853, -10724.635210589793, -36610.1904642809, 12752.832502464355, 16551.13149298805, -10966.79401001859, 10644.906538117712, 0.074, 0.9380000000000001, 0.182, 192.0, 0.0, 0.0, 0.0, 0.0, 0.0, 0.0, 0.0, 0.0, 0.0, 1.657492838056654E9, 0.0, 2022-07-10 18:40:38.056
93.0, 38291.64514442028, 31937.312416709952, -10790.572856732948, -36667.79090974223, 12681.709251607568, 17106.34882525788, -11048.891967402931, 10731.586603115393, 0.074, 0.9380000000000001, 0.182, 192.0, 0.0, 0.0, 0.0, 0.0, 0.0, 0.0, 0.0, 0.0, 0.0, 1.657492838056675E9, 0.0, 2022-07-10 18:40:38.056
94.0, 38300.02704859103, 32027.05467069801, -10809.61654300887, -36869.560106940284, 12705.715025152567, 16257.094294678485, -11041.47118824377, 10368.348403972197, 0.074, 0.9380000000000001, 0.182, 192.0, 0.0, 0.0, 0.0, 0.0, 0.0, 0.0, 0.0, 0.0, 0.0, 1.657492838065366E9, 0.0, 2022-07-10 18:40:38.065
95.0, 38497.258841664654, 32150.16807915784, -10748.529225412516, -36845.91196130657, 12781.643901067246, 15589.850019198659, -10961.541350071591, 10226.615992381096, 0.074, 0.9380000000000001, 0.182, 192.0, 0.0, 0.0, 0.0, 0.0, 0.0, 0.0, 0.0, 0.0, 0.0, 1.657492838065417E9, 0.0, 2022-07-10 18:40:38.065
96.0, 38518.515350641654, 32074.708589876725, -10720.723655310114, -36637.83957217212, 12762.510807813504, 16332.442025237326, -10975.667652567347, 10557.377106830729, 0.074, 0.9380000000000001, 0.182, 192.0, 0.0, 0.0, 0.0, 0.0, 0.0, 0.0, 0.0, 0.0, 0.0, 1.657492838071201E9, 0.0, 2022-07-10 18:40:38.071
97.0, 38324.658670980774, 31937.64769287678, -10784.068499096455, -36641.48290651833, 12675.026080015432, 17116.83179340742, -11076.317557849594, 10753.51366442605, 0.074, 0.9380000000000001, 0.182, 192.0, 0.0, 0.0, 0.0, 0.0, 0.0, 0.0, 0.0, 0.0, 0.0, 1.657492838071251E9, 0.0, 2022-07-10 18:40:38.071
98.0, 38276.647123890776, 31999.651431995804, -10814.355112833395, -36849.28707471932, 12694.717966880557, 16444.960706825343, -11052.647060471423, 10442.869119986191, 0.074, 0.9380000000000001, 0.182, 192.0, 0.0, 0.0, 0.0, 0.0, 0.0, 0.0, 0.0, 0.0, 0.0, 1.657492838079546E9, 0.0, 2022-07-10 18:40:38.079
99.0, 38459.171469112815, 32140.713291253247, -10760.263891251552, -36877.58438319974, 12775.117191686297, 15600.37769083711, -10978.08164096852, 10190.696739041417, 0.074, 0.9380000000000001, 0.182, 192.0, 0.0, 0.0, 0.0, 0.0, 0.0, 0.0, 0.0, 0.0, 0.0, 1.657492838079571E9, 0.0, 2022-07-10 18:40:38.079
100.0, 38537.49198168421, 32106.828046659, -10717.862632019835, -36678.162119169494, 12774.893674241743, 16122.04505467952, -10957.987422703198, 10461.108143461723, 0.068, 0.9380000000000001, 0.17200000000000001, 192.0, 2.0, 32.0, 29.0, 80.0, 5.0, 96.0, 0.0, 0.0, 0.0, 1.657492838086337E9, 0.0, 2022-07-10 18:40:38.086
101.0, 38362.88015399935, 31960.826451876936, -10766.812952376957, -36616.38189749502, 12692.862772090766, 17080.733726112096, -11045.047467356619, 10751.70317312517, 0.068, 0.9380000000000001, 0.17200000000000001, 192.0, 0.0, 0.0, 0.0, 0.0, 0.0, 0.0, 0.0, 0.0, 0.0, 1.657492838094363E9, 0.0, 2022-07-10 18:40:38.094
102.0, 38265.91828655223, 31989.99547839111, -10812.745787232612, -36814.08307720221, 12686.850152832289, 16644.360619111136, -11072.7636304812, 10489.472507175507, 0.068, 0.9380000000000001, 0.17200000000000001, 192.0, 0.0, 0.0, 0.0, 0.0, 0.0, 0.0, 0.0, 0.0, 0.0, 1.65749283809439E9, 0.0, 2022-07-10 18:40:38.094
103.0, 38419.89945410484, 32141.31678835354, -10764.287205253508, -36889.78843567234, 12771.183284662162, 15673.378488228142, -10994.621931865446, 10171.027203920747, 0.068, 0.9380000000000001, 0.17200000000000001, 192.0, 0.0, 0.0, 0.0, 0.0, 0.0, 0.0, 0.0, 0.0, 0.0, 1.657492838100787E9, 0.0, 2022-07-10 18:40:38.100
104.0, 38542.96815907576, 32150.056320435564, -10708.474899348605, -36706.750000327826, 12791.29985467194, 15941.420607736185, -10961.228425649218, 10403.664160211583, 0.068, 0.9380000000000001, 0.17200000000000001, 192.0, 0.0, 0.0, 0.0, 0.0, 0.0, 0.0, 0.0, 0.0, 0.0, 1.657492838100839E9, 0.0, 2022-07-10 18:40:38.100
105.0, 38400.565195151, 31999.852597695903, -10744.46120792165, -36592.51023441675, 12720.46717649307, 16994.634806470254, -11025.176766535851, 10762.052030807976, 0.068, 0.9380000000000001, 0.17200000000000001, 192.0, 0.0, 0.0, 0.0, 0.0, 0.0, 0.0, 0.0, 0.0, 0.0, 1.65749283810903E9, 0.0, 2022-07-10 18:40:38.109
106.0, 38259.59274287138, 31977.366742773862, -10808.342493574917, -36768.91020165804, 12692.41573720166, 16826.303818977336, -11069.030889157164, 10572.822162249347, 0.068, 0.9380000000000001, 0.17200000000000001, 192.0, 0.0, 0.0, 0.0, 0.0, 0.0, 0.0, 0.0, 0.0, 0.0, 1.657492838109074E9, 0.0, 2022-07-10 18:40:38.109
107.0, 38388.070570000484, 32124.016538145133, -10779.173467060742, -36893.72234269647, 12759.627432778769, 15816.384949253197, -10993.772565576144, 10271.542998736262, 0.068, 0.9380000000000001, 0.17200000000000001, 192.0, 0.0, 0.0, 0.0, 0.0, 0.0, 0.0, 0.0, 0.0, 0.0, 1.657492838116833E9, 0.0, 2022-07-10 18:40:38.116
108.0, 38535.927359572335, 32172.072788724043, -10720.477786121106, -36749.91121887103, 12795.926665774186, 15802.437460713085, -10960.043783193087, 10365.755601615383, 0.068, 0.9380000000000001, 0.17200000000000001, 192.0, 0.0, 0.0, 0.0, 0.0, 0.0, 0.0, 0.0, 0.0, 0.0, 1.657492838116852E9, 0.0, 2022-07-10 18:40:38.116
109.0, 38435.21039905673, 32035.369519635384, -10732.435969404694, -36582.96603953434, 12737.275688323462, 16872.169598599627, -10992.967902775754, 10738.40388517426, 0.068, 0.9380000000000001, 0.17200000000000001, 192.0, 0.0, 0.0, 0.0, 0.0, 0.0, 0.0, 0.0, 0.0, 0.0, 1.657492838124284E9, 0.0, 2022-07-10 18:40:38.124
110.0, 38275.64129539028, 31982.127664342843, -10792.56216198947, -36716.74123009935, 12695.9473128256, 16996.17707683767, -11037.09024633053, 10678.9705966676, 0.054, 0.96, 0.164, 192.0, 1.0, 176.0, 30.0, 0.0, 5.0, 32.0, 0.0, 0.0, 0.0, 1.657492838124359E9, 0.0, 2022-07-10 18:40:38.124
111.0, 38355.839354495925, 32113.935901395787, -10780.067536838955, -36881.183014057046, 12754.7100489986, 15980.938491933168, -10993.012606264665, 10298.074519404712, 0.054, 0.96, 0.164, 192.0, 0.0, 0.0, 0.0, 0.0, 0.0, 0.0, 0.0, 0.0, 0.0, 1.65749283813153E9, 0.0, 2022-07-10 18:40:38.131
112.0, 38528.506580413174, 32184.07567549654, -10722.064759977433, -36782.47771054241, 12799.39118616476, 15698.01011061789, -10954.634661034903, 10265.597434711151, 0.054, 0.96, 0.164, 192.0, 0.0, 0.0, 0.0, 0.0, 0.0, 0.0, 0.0, 0.0, 0.0, 1.657492838131552E9, 0.0, 2022-07-10 18:40:38.131
113.0, 38471.50963205214, 32058.72709259118, -10721.908297766246, -36591.34794370508, 12747.490435539537, 16696.104907525172, -10996.655940610879, 10648.527520719472, 0.054, 0.96, 0.164, 192.0, 0.0, 0.0, 0.0, 0.0, 0.0, 0.0, 0.0, 0.0, 0.0, 1.657492838140891E9, 0.0, 2022-07-10 18:40:38.140
114.0, 38284.42553096122, 31971.063550837465, -10779.374632760839, -36674.56348831219, 12696.32729248134, 17088.825057604918, -11047.304993546604, 10705.233896402586, 0.054, 0.96, 0.164, 192.0, 0.0, 0.0, 0.0, 0.0, 0.0, 0.0, 0.0, 0.0, 0.0, 1.657492838140911E9, 0.0, 2022-07-10 18:40:38.140
115.0, 38311.06881035195, 32079.91654633481, -10780.715737428158, -36859.32300797976, 12741.790740703433, 16157.561976619003, -11022.651019412402, 10334.753732055871, 0.054, 0.96, 0.164, 192.0, 0.0, 0.0, 0.0, 0.0, 0.0, 0.0, 0.0, 0.0, 0.0, 1.657492838147756E9, 0.0, 2022-07-10 18:40:38.147
116.0, 38503.47262662323, 32186.467312153258, -10719.270791920519, -36798.32509736122, 12808.53304964698, 15650.087970505712, -10942.385905073394, 10245.436161212465, 0.054, 0.96, 0.164, 192.0, 0.0, 0.0, 0.0, 0.0, 0.0, 0.0, 0.0, 0.0, 0.0, 1.6574928381478E9, 0.0, 2022-07-10 18:40:38.147
117.0, 38495.89538525288, 32091.49474996266, -10706.753815025546, -36599.77455136473, 12777.128848687275, 16504.528105798734, -10949.985498188198, 10590.9494270026, 0.054, 0.96, 0.164, 192.0, 0.0, 0.0, 0.0, 0.0, 0.0, 0.0, 0.0, 0.0, 0.0, 1.657492838153355E9, 0.0, 2022-07-10 18:40:38.153
118.0, 38302.15046431428, 31969.27541128104, -10764.980109331622, -36628.36243252306, 12708.508993209482, 17134.62378199384, -11020.505251944693, 10737.17453922922, 0.054, 0.96, 0.164, 192.0, 0.0, 0.0, 0.0, 0.0, 0.0, 0.0, 0.0, 0.0, 0.0, 1.657492838161678E9, 0.0, 2022-07-10 18:40:38.161
119.0, 38290.52755719752, 32051.172202965285, -10787.890647398312, -36830.46690588795, 12731.486586509536, 16351.798635935622, -11013.84443209701, 10419.288029585843, 0.054, 0.96, 0.164, 192.0, 0.0, 0.0, 0.0, 0.0, 0.0, 0.0, 0.0, 0.0, 0.0, 1.657492838161739E9, 0.0, 2022-07-10 18:40:38.161
120.0, 38480.3832746009, 32179.895899283398, -10735.185233972697, -36827.829400042225, 12803.079223999886, 15628.965571995446, -10956.31104186905, 10232.002762794824, 0.046, 0.972, 0.162, 192.0, 1.0, 112.0, 30.0, 96.0, 5.0, 16.0, 0.0, 0.0, 0.0, 1.657492838169237E9, 0.0, 2022-07-10 18:40:38.169
121.0, 38526.986661790215, 32118.8309334315, -10700.16005041123, -36621.50044697529, 12790.539895360458, 16293.46058290727, -10964.558835573058, 10538.355772299263, 0.046, 0.972, 0.162, 192.0, 0.0, 0.0, 0.0, 0.0, 0.0, 0.0, 0.0, 0.0, 0.0, 1.657492838169312E9, 0.0, 2022-07-10 18:40:38.169
122.0, 38343.054156667495, 31980.22776606414, -10751.054972535965, -36595.55007166268, 12711.928810111143, 17135.808424449973, -11031.345848005516, 10777.318272270952, 0.046, 0.972, 0.162, 192.0, 0.0, 0.0, 0.0, 0.0, 0.0, 0.0, 0.0, 0.0, 0.0, 1.657492838176376E9, 0.0, 2022-07-10 18:40:38.176
123.0, 38273.33906571139, 32028.842810254435, -10789.835249165923, -36804.203606152965, 12719.170775314662, 16539.46388238238, -11025.333228747038, 10473.535713378873, 0.046, 0.972, 0.162, 192.0, 0.0, 0.0, 0.0, 0.0, 0.0, 0.0, 0.0, 0.0, 0.0, 1.657492838176406E9, 0.0, 2022-07-10 18:40:38.176
124.0, 38445.84982941745, 32176.31962017055, -10740.996687531077, -36847.7448043519, 12795.926665774186, 15658.492226420907, -10948.890262709889, 10200.978541490858, 0.046, 0.972, 0.162, 192.0, 0.0, 0.0, 0.0, 0.0, 0.0, 0.0, 0.0, 0.0, 0.0, 1.657492838183773E9, 0.0, 2022-07-10 18:40:38.183
125.0, 38546.16445853287, 32156.091291438497, -10700.629437044792, -36652.54702002371, 12799.748814076045, 16099.536848013026, -10934.227518347207, 10453.821474769293, 0.046, 0.972, 0.162, 192.0, 0.0, 0.0, 0.0, 0.0, 0.0, 0.0, 0.0, 0.0, 0.0, 1.657492838183794E9, 0.0, 2022-07-10 18:40:38.183
126.0, 38372.5584593485, 32011.341394345927, -10734.291164194485, -36570.02437949472, 12734.839348177833, 17080.689022623184, -10976.964053745754, 10772.959682102166, 0.046, 0.972, 0.162, 192.0, 0.0, 0.0, 0.0, 0.0, 0.0, 0.0, 0.0, 0.0, 0.0, 1.657492838192127E9, 0.0, 2022-07-10 18:40:38.192
127.0, 38256.642312603275, 32017.80104849351, -10783.889685140812, -36757.04142535227, 12713.80635664539, 16734.371094032656, -11011.18457450683, 10559.209949876065, 0.046, 0.972, 0.162, 192.0, 0.0, 0.0, 0.0, 0.0, 0.0, 0.0, 0.0, 0.0, 0.0, 1.657492838192177E9, 0.0, 2022-07-10 18:40:38.192
128.0, 38416.256119758626, 32160.248715907186, -10755.190045260197, -36859.233601001935, 12776.167723675695, 15748.457997853518, -10971.733745543212, 10222.056236512213, 0.046, 0.972, 0.162, 192.0, 0.0, 0.0, 0.0, 0.0, 0.0, 0.0, 0.0, 0.0, 0.0, 1.657492838199754E9, 0.0, 2022-07-10 18:40:38.199
129.0, 38551.81944988006, 32178.532442871627, -10700.249457389053, -36694.4118373885, 12806.364930434816, 15910.374034687762, -10925.890317665377, 10377.28910175432, 0.046, 0.972, 0.162, 192.0, 0.0, 0.0, 0.0, 0.0, 0.0, 0.0, 0.0, 0.0, 0.0, 1.657492838199844E9, 0.0, 2022-07-10 18:40:38.199
130.0, 38397.77122709408, 32024.975958463667, -10726.356294912852, -36563.87764976951, 12738.28151682395, 16955.63101239574, -10974.684175811313, 10750.31736496894, 0.044, 0.974, 0.176, 192.0, 1.0, 96.0, 30.0, 112.0, 5.0, 128.0, 0.0, 0.0, 0.0, 1.657492838206619E9, 0.0, 2022-07-10 18:40:38.206
131.0, 38236.74926003805, 31983.871100410357, -10794.462060268172, -36728.207675004924, 12699.098908793798, 16885.044203405883, -11024.573269435557, 10621.43720643964, 0.044, 0.974, 0.176, 192.0, 0.0, 0.0, 0.0, 0.0, 0.0, 0.0, 0.0, 0.0, 0.0, 1.65749283820668E9, 0.0, 2022-07-10 18:40:38.206
132.0, 38366.92581974576, 32128.933921925298, -10774.7925251475, -36866.72143539446, 12762.935490958154, 15877.76283952747, -10976.382908389916, 10252.991050838358, 0.044, 0.974, 0.176, 192.0, 0.0, 0.0, 0.0, 0.0, 0.0, 0.0, 0.0, 0.0, 0.0, 1.657492838213355E9, 0.0, 2022-07-10 18:40:38.213
133.0, 38549.80779287908, 32182.17577721784, -10718.130852953298, -36740.031747821784, 12805.269694956505, 15783.259663970432, -10934.383980558394, 10329.366961642143, 0.044, 0.974, 0.176, 192.0, 0.0, 0.0, 0.0, 0.0, 0.0, 0.0, 0.0, 0.0, 0.0, 1.657492838221739E9, 0.0, 2022-07-10 18:40:38.221
134.0, 38434.15986706733, 32038.409356881304, -10723.495271622573, -36573.511251629745, 12757.146389144229, 16814.23387697147, -10949.382001087904, 10721.21539368813, 0.044, 0.974, 0.176, 192.0, 0.0, 0.0, 0.0, 0.0, 0.0, 0.0, 0.0, 0.0, 0.0, 1.657492838221789E9, 0.0, 2022-07-10 18:40:38.221
135.0, 38239.096193205856, 31966.347332757396, -10781.833324650923, -36687.54985184072, 12710.408891488183, 17022.172155639193, -11006.915391315866, 10694.102727663843, 0.044, 0.974, 0.176, 192.0, 0.0, 0.0, 0.0, 0.0, 0.0, 0.0, 0.0, 0.0, 0.0, 1.657492838231959E9, 0.0, 2022-07-10 18:40:38.231
136.0, 38324.70337446968, 32099.519026222115, -10771.953853601677, -36856.73020562294, 12764.56716830339, 16044.193928741686, -10970.325585642528, 10329.031685475313, 0.044, 0.974, 0.176, 192.0, 0.0, 0.0, 0.0, 0.0, 0.0, 0.0, 0.0, 0.0, 0.0, 1.657492838232032E9, 0.0, 2022-07-10 18:40:38.232
137.0, 38545.225685265745, 32184.99209701921, -10717.303838408452, -36771.055969125744, 12812.757529349034, 15697.831296662247, -10924.616268231424, 10289.267932089322, 0.044, 0.974, 0.176, 192.0, 0.0, 0.0, 0.0, 0.0, 0.0, 0.0, 0.0, 0.0, 0.0, 1.657492838237416E9, 0.0, 2022-07-10 18:40:38.237
138.0, 38480.11505366743, 32065.92435430579, -10705.412710358229, -36582.85428081206, 12776.570055075892, 16627.306238091736, -10950.141960399385, 10655.724782434081, 0.044, 0.974, 0.176, 192.0, 0.0, 0.0, 0.0, 0.0, 0.0, 0.0, 0.0, 0.0, 0.0, 1.657492838237443E9, 0.0, 2022-07-10 18:40:38.237
139.0, 38257.5810858704, 31959.127719298333, -10770.724507656636, -36646.6014559986, 12711.99586534451, 17094.86002860785, -11007.764757605168, 10739.320306696929, 0.044, 0.974, 0.176, 192.0, 0.0, 0.0, 0.0, 0.0, 0.0, 0.0, 0.0, 0.0, 0.0, 1.657492838244216E9, 0.0, 2022-07-10 18:40:38.244
140.0, 38291.84631012038, 32061.699874603735, -10788.002406120588, -36833.26087394487, 12746.37284831677, 16219.297494804561, -10971.711393798756, 10386.207447791989, 0.05, 0.966, 0.196, 192.0, 1.0, 144.0, 30.0, 48.0, 6.0, 32.0, 0.0, 0.0, 0.0, 1.657492838244239E9, 0.0, 2022-07-10 18:40:38.244
141.0, 38516.995432018695, 32177.88424228242, -10737.442760162683, -36800.292050873286, 12814.948000305654, 15631.200746440978, -10920.481195507193, 10243.223338511389, 0.05, 0.966, 0.196, 192.0, 0.0, 0.0, 0.0, 0.0, 0.0, 0.0, 0.0, 0.0, 0.0, 1.657492838252441E9, 0.0, 2022-07-10 18:40:38.252
142.0, 38503.85260627897, 32085.191558026265, -10718.756701798047, -36604.58017642262, 12787.164781947708, 16408.616770341014, -10946.990364431187, 10578.767726274458, 0.05, 0.966, 0.196, 192.0, 0.0, 0.0, 0.0, 0.0, 0.0, 0.0, 0.0, 0.0, 0.0, 1.657492838252484E9, 0.0, 2022-07-10 18:40:38.252
143.0, 38275.864812834836, 31954.65737040727, -10776.491257726104, -36614.63846142751, 12708.352530998294, 17116.876496896326, -11023.925068846354, 10766.70119365468, 0.05, 0.966, 0.196, 192.0, 0.0, 0.0, 0.0, 0.0, 0.0, 0.0, 0.0, 0.0, 0.0, 1.657492838258692E9, 0.0, 2022-07-10 18:40:38.258
144.0, 38256.709367836644, 32036.822383024977, -10796.339606802418, -36810.350335878175, 12735.442845278127, 16400.65954931492, -11000.99217903521, 10447.004192710423, 0.05, 0.966, 0.196, 192.0, 0.0, 0.0, 0.0, 0.0, 0.0, 0.0, 0.0, 0.0, 0.0, 1.657492838258739E9, 0.0, 2022-07-10 18:40:38.258
