%OpenBCI Raw EEG Data
%Number of channels = 8
%Sample Rate = 250 Hz
%Board = OpenBCI_GUI$BoardCytonSerial
Sample Index, EXG Channel 0, EXG Channel 1, EXG Channel 2, EXG Channel 3, EXG Channel 4, EXG Channel 5, EXG Channel 6, EXG Channel 7, Accel Channel 0, Accel Channel 1, Accel Channel 2, Other, Other, Other, Other, Other, Other, Other, Analog Channel 0, Analog Channel 1, Analog Channel 2, Timestamp, Other, Timestamp (Formatted)
55.0, 23747.07445467406, 5667.284806643106, -31900.364983125328, -53710.996056913864, -2214.4543784206367, 8269.787820552328, -26858.146710174886, -6505.452871972665, 0.0, 0.0, 0.0, 192.0, 0.0, 0.0, 0.0, 0.0, 0.0, 0.0, 0.0, 0.0, 0.0, 1.657492243012639E9, 0.0, 2022-07-10 18:30:43.012
56.0, 23654.046494251073, 5683.445117884293, -31971.868213637856, -53962.25201633597, -2227.8207216049104, 8763.53785557006, -26897.932815305332, -6782.3015787960985, 0.0, 0.0, 0.0, 192.0, 0.0, 0.0, 0.0, 0.0, 0.0, 0.0, 0.0, 0.0, 0.0, 1.657492243012674E9, 0.0, 2022-07-10 18:30:43.012
57.0, 23838.649551707455, 5958.617443873578, -31849.31359878941, -54000.33938888781, -2046.8162950058336, 6985.233066705831, -26742.43172912976, -7158.6155484456485, 0.0, 0.0, 0.0, 192.0, 0.0, 0.0, 0.0, 0.0, 0.0, 0.0, 0.0, 0.0, 0.0, 1.657492243012686E9, 0.0, 2022-07-10 18:30:43.012
58.0, 24011.36148111361, 5991.809784389709, -31763.661714036672, -53782.29812172629, -1999.2964862938509, 6256.387383507179, -26686.686478458225, -6966.90463625248, 0.0, 0.0, 0.0, 192.0, 0.0, 0.0, 0.0, 0.0, 0.0, 0.0, 0.0, 0.0, 0.0, 1.657492243012697E9, 0.0, 2022-07-10 18:30:43.012
0.0, 0.0, 0.0, 0.0, 0.0, 0.0, 0.0, 0.0, 0.0, 0.044, 0.868, 0.446, 192.0, 1.0, 96.0, 27.0, 32.0, 13.0, 240.0, 0.0, 0.0, 0.0, 1.657492243101656E9, 0.0, 2022-07-10 18:30:43.101
1.0, 24558.599240612893, 7179.2238568334415, -31408.917177786494, -53561.97697663033, -1823.589423130682, 6557.577140042441, -26554.63237221627, -6438.688211284663, 0.044, 0.868, 0.446, 192.0, 0.0, 0.0, 0.0, 0.0, 0.0, 0.0, 0.0, 0.0, 0.0, 1.657492243109455E9, 0.0, 2022-07-10 18:30:43.109
2.0, 24357.16531958167, 7021.152320045509, -31392.041610722736, -53357.43616311982, -1862.5485137162823, 6641.820864894494, -26567.864604933813, -6077.484020886901, 0.044, 0.868, 0.446, 192.0, 0.0, 0.0, 0.0, 0.0, 0.0, 0.0, 0.0, 0.0, 0.0, 1.657492243109479E9, 0.0, 2022-07-10 18:30:43.109
3.0, 23744.325190106058, 6754.8312848605265, -31530.063632734258, -53379.363224430475, -2040.4683995805265, 8564.607329917828, -26711.765135737078, -5796.43318610587, 0.044, 0.868, 0.446, 192.0, 0.0, 0.0, 0.0, 0.0, 0.0, 0.0, 0.0, 0.0, 0.0, 1.65749224311652E9, 0.0, 2022-07-10 18:30:43.116
4.0, 23907.895256029995, 6899.380016252997, -31557.37746445864, -53567.81078193316, -2024.486902294982, 8701.24354377312, -26718.828286984957, -6116.130187050127, 0.044, 0.868, 0.446, 192.0, 0.0, 0.0, 0.0, 0.0, 0.0, 0.0, 0.0, 0.0, 0.0, 1.657492243116547E9, 0.0, 2022-07-10 18:30:43.116
5.0, 24612.802220917016, 7165.969272371444, -31435.873381599595, -53564.50272375378, -1867.3094352852627, 6965.161200184965, -26603.761506529037, -6419.1304348862695, 0.044, 0.868, 0.446, 192.0, 0.0, 0.0, 0.0, 0.0, 0.0, 0.0, 0.0, 0.0, 0.0, 1.657492243124177E9, 0.0, 2022-07-10 18:30:43.124
6.0, 24602.92274986777, 7070.25910261382, -31390.29817465522, -53396.059977538585, -1858.7263654144247, 6584.175715944257, -26595.670175036215, -6171.629568532654, 0.044, 0.868, 0.446, 192.0, 0.0, 0.0, 0.0, 0.0, 0.0, 0.0, 0.0, 0.0, 0.0, 1.65749224312422E9, 0.0, 2022-07-10 18:30:43.124
7.0, 23696.827733138532, 6768.130572811434, -31511.914016236547, -53398.04928279511, -2016.037942890876, 8137.174920698992, -26733.20045866972, -5869.054003841163, 0.044, 0.868, 0.446, 192.0, 0.0, 0.0, 0.0, 0.0, 0.0, 0.0, 0.0, 0.0, 0.0, 1.657492243131077E9, 0.0, 2022-07-10 18:30:43.131
8.0, 23525.14398397732, 6846.607547594017, -31550.470775421953, -53540.74281939779, -2023.6375360056802, 8556.270129236, -26703.271472844062, -6065.548189347767, 0.044, 0.864, 0.466, 192.0, 1.0, 96.0, 27.0, 0.0, 14.0, 144.0, 0.0, 0.0, 0.0, 1.657492243131109E9, 0.0, 2022-07-10 18:30:43.131
9.0, 24528.267923387044, 7152.55822569826, -31446.80338463824, -53529.90222333697, -1899.5406507898153, 7280.186686538063, -26602.9791954731, -6350.376468941745, 0.044, 0.864, 0.466, 192.0, 0.0, 0.0, 0.0, 0.0, 0.0, 0.0, 0.0, 0.0, 0.0, 1.657492243139186E9, 0.0, 2022-07-10 18:30:43.139
10.0, 25006.192923330418, 7121.489300905383, -31395.997869491326, -53404.37482647596, -1863.3084730277626, 6809.704817498305, -26566.523500266496, -6190.025054219372, 0.044, 0.864, 0.466, 192.0, 0.0, 0.0, 0.0, 0.0, 0.0, 0.0, 0.0, 0.0, 0.0, 1.657492243146455E9, 0.0, 2022-07-10 18:30:43.146
11.0, 23962.589974712133, 6789.767061444171, -31485.65071650156, -53408.912230600385, -1974.1060702927198, 7990.9051049834625, -26663.261850269064, -5887.6730069724335, 0.044, 0.864, 0.466, 192.0, 0.0, 0.0, 0.0, 0.0, 0.0, 0.0, 0.0, 0.0, 0.0, 1.657492243146476E9, 0.0, 2022-07-10 18:30:43.146
12.0, 23346.195917868128, 6798.305427826099, -31537.05972874877, -53522.235574988794, -2011.8581666777334, 8551.196283244644, -26719.610598040894, -6008.484185753368, 0.044, 0.864, 0.466, 192.0, 0.0, 0.0, 0.0, 0.0, 0.0, 0.0, 0.0, 0.0, 0.0, 1.657492243153814E9, 0.0, 2022-07-10 18:30:43.153
13.0, 24315.85929582826, 7127.367809697129, -31451.296085273756, -53521.69913312187, -1900.3900170791171, 7514.790596340967, -26625.643864350783, -6285.109375132248, 0.044, 0.864, 0.466, 192.0, 0.0, 0.0, 0.0, 0.0, 0.0, 0.0, 0.0, 0.0, 0.0, 1.657492243153835E9, 0.0, 2022-07-10 18:30:43.153
14.0, 25091.91186331652, 7189.349197071696, -31391.50516885581, -53410.78977713463, -1853.585464189704, 6808.989561675735, -26566.411741544216, -6219.954040045028, 0.044, 0.864, 0.466, 192.0, 0.0, 0.0, 0.0, 0.0, 0.0, 0.0, 0.0, 0.0, 0.0, 1.657492243161699E9, 0.0, 2022-07-10 18:30:43.161
15.0, 24174.551567381808, 6848.30628017262, -31467.434044770485, -53400.48562294074, -1952.424878171072, 7734.061209447528, -26649.448472195683, -5935.103408706595, 0.044, 0.864, 0.466, 192.0, 0.0, 0.0, 0.0, 0.0, 0.0, 0.0, 0.0, 0.0, 0.0, 1.657492243161718E9, 0.0, 2022-07-10 18:30:43.161
16.0, 23275.072667011344, 6756.932348839325, -31539.116089238658, -53506.45524340335, -2023.9281086835992, 8512.237192659044, -26733.647493558827, -5985.8195168756865, 0.044, 0.864, 0.466, 192.0, 0.0, 0.0, 0.0, 0.0, 0.0, 0.0, 0.0, 0.0, 0.0, 1.657492243170573E9, 0.0, 2022-07-10 18:30:43.170
17.0, 24077.969679590427, 7082.4855068308725, -31481.269774588323, -53528.87404309202, -1946.4793141459602, 7719.57727904049, -26697.124743118853, -6279.655549485154, 0.044, 0.864, 0.466, 192.0, 0.0, 0.0, 0.0, 0.0, 0.0, 0.0, 0.0, 0.0, 0.0, 1.65749224317061E9, 0.0, 2022-07-10 18:30:43.170
18.0, 25104.786468122777, 7234.47736912696, -31394.58970959064, -53428.02297210968, -1857.005281091366, 6850.608509851517, -26577.02882016049, -6274.514648260432, 0.038, 0.866, 0.47200000000000003, 192.0, 1.0, 48.0, 27.0, 16.0, 14.0, 192.0, 0.0, 0.0, 0.0, 1.657492243177053E9, 0.0, 2022-07-10 18:30:43.177
19.0, 24429.5179163835, 6916.0320658722, -31448.88209687258, -53395.009445549185, -1927.100351703209, 7525.497081935058, -26625.666216095236, -5980.678615650966, 0.038, 0.866, 0.47200000000000003, 192.0, 0.0, 0.0, 0.0, 0.0, 0.0, 0.0, 0.0, 0.0, 0.0, 1.657492243177105E9, 0.0, 2022-07-10 18:30:43.177
20.0, 23297.536170188927, 6729.953793281769, -31541.75359508438, -53493.84885953055, -2014.2498033344514, 8480.229494599043, -26715.56493229448, -5949.050897246707, 0.038, 0.866, 0.47200000000000003, 192.0, 0.0, 0.0, 0.0, 0.0, 0.0, 0.0, 0.0, 0.0, 0.0, 1.657492243184409E9, 0.0, 2022-07-10 18:30:43.184
21.0, 23845.399778532956, 7015.899660098513, -31495.977222439913, -53537.36770598504, -1951.6872706040467, 7922.642877416954, -26687.66995521426, -6229.073551782793, 0.038, 0.866, 0.47200000000000003, 192.0, 0.0, 0.0, 0.0, 0.0, 0.0, 0.0, 0.0, 0.0, 0.0, 1.657492243184448E9, 0.0, 2022-07-10 18:30:43.184
22.0, 25051.566964574693, 7240.221767451974, -31407.821942308183, -53447.446638041336, -1870.8857143981118, 6937.802664971669, -26619.430079392205, -6291.725491491019, 0.038, 0.866, 0.47200000000000003, 192.0, 0.0, 0.0, 0.0, 0.0, 0.0, 0.0, 0.0, 0.0, 0.0, 1.657492243191583E9, 0.0, 2022-07-10 18:30:43.191
23.0, 24660.411436606817, 6982.975540515846, -31439.203791523432, -53397.110509527985, -1920.7301045334466, 7321.02332365791, -26617.12784971331, -6024.555090016734, 0.038, 0.866, 0.47200000000000003, 192.0, 0.0, 0.0, 0.0, 0.0, 0.0, 0.0, 0.0, 0.0, 0.0, 1.657492243191602E9, 0.0, 2022-07-10 18:30:43.191
24.0, 23365.99956345553, 6727.785674069604, -31535.606865359172, -53480.72838553529, -2012.3946085446607, 8371.532961312885, -26692.006193638586, -5914.808024741176, 0.038, 0.866, 0.47200000000000003, 192.0, 0.0, 0.0, 0.0, 0.0, 0.0, 0.0, 0.0, 0.0, 0.0, 1.657492243198881E9, 0.0, 2022-07-10 18:30:43.198
25.0, 23613.142801897862, 6965.340014140608, -31515.89262674959, -53538.12766529652, -1976.6318174161695, 8090.79505095423, -26697.638833241326, -6171.495458065922, 0.038, 0.866, 0.47200000000000003, 192.0, 0.0, 0.0, 0.0, 0.0, 0.0, 0.0, 0.0, 0.0, 0.0, 1.657492243206531E9, 0.0, 2022-07-10 18:30:43.206
26.0, 24917.0318146982, 7239.841787796234, -31421.232988981366, -53466.06564117261, -1883.4026912930838, 7048.309689558708, -26631.008283020055, -6315.127767935725, 0.038, 0.866, 0.47200000000000003, 192.0, 0.0, 0.0, 0.0, 0.0, 0.0, 0.0, 0.0, 0.0, 0.0, 1.657492243206553E9, 0.0, 2022-07-10 18:30:43.206
27.0, 24879.9726223913, 7051.885968671557, -31423.669329126995, -53396.70817812779, -1898.1548426335864, 7154.301661765774, -26637.736158101103, -6102.048588043283, 0.036000000000000004, 0.862, 0.47400000000000003, 192.0, 1.0, 32.0, 26.0, 240.0, 14.0, 208.0, 0.0, 0.0, 0.0, 1.657492243213847E9, 0.0, 2022-07-10 18:30:43.213
28.0, 23517.991425751617, 6734.535900895107, -31523.89455126459, -53461.774106237186, -2002.7386549399682, 8233.063904412258, -26710.75930723659, -5935.684554062433, 0.036000000000000004, 0.862, 0.47400000000000003, 192.0, 0.0, 0.0, 0.0, 0.0, 0.0, 0.0, 0.0, 0.0, 0.0, 1.657492243214042E9, 0.0, 2022-07-10 18:30:43.214
29.0, 23429.277352008507, 6901.950466865357, -31523.156943697566, -53532.9867640718, -1984.2761140198845, 8228.682962499019, -26694.37547855085, -6121.204033041481, 0.036000000000000004, 0.862, 0.47400000000000003, 192.0, 0.0, 0.0, 0.0, 0.0, 0.0, 0.0, 0.0, 0.0, 0.0, 1.65749224322126E9, 0.0, 2022-07-10 18:30:43.221
30.0, 24745.146899836887, 7218.875851497156, -31425.233951238868, -53470.60304529704, -1885.7943279498015, 7196.345293086207, -26622.760489316046, -6292.485450802499, 0.036000000000000004, 0.862, 0.47400000000000003, 192.0, 0.0, 0.0, 0.0, 0.0, 0.0, 0.0, 0.0, 0.0, 0.0, 1.657492243221466E9, 0.0, 2022-07-10 18:30:43.221
31.0, 25054.271525653785, 7112.593306612171, -31409.632433609062, -53400.86560259648, -1876.1160226006537, 7022.359314246097, -26586.50595980954, -6123.595669698199, 0.036000000000000004, 0.862, 0.47400000000000003, 192.0, 0.0, 0.0, 0.0, 0.0, 0.0, 0.0, 0.0, 0.0, 0.0, 1.657492243229573E9, 0.0, 2022-07-10 18:30:43.229
32.0, 23719.626512482944, 6767.705889666783, -31496.960699195948, -53445.43498104036, -1968.227561500974, 8034.021620037749, -26658.456225211172, -5904.3474083360925, 0.036000000000000004, 0.862, 0.47400000000000003, 192.0, 0.0, 0.0, 0.0, 0.0, 0.0, 0.0, 0.0, 0.0, 0.0, 1.657492243229595E9, 0.0, 2022-07-10 18:30:43.229
33.0, 23285.622690394248, 6834.850530010525, -31530.175391456534, -53528.29289773618, -1999.6764659495911, 8312.54670769533, -26722.471621331173, -6063.20125617996, 0.036000000000000004, 0.862, 0.47400000000000003, 192.0, 0.0, 0.0, 0.0, 0.0, 0.0, 0.0, 0.0, 0.0, 0.0, 1.65749224323757E9, 0.0, 2022-07-10 18:30:43.237
34.0, 24535.487536846107, 7180.520258011849, -31446.199887537947, -53496.866345032024, -1907.3414096047177, 7373.974606272532, -26648.80027160648, -6292.820726969329, 0.036000000000000004, 0.862, 0.47400000000000003, 192.0, 0.0, 0.0, 0.0, 0.0, 0.0, 0.0, 0.0, 0.0, 0.0, 1.657492243237616E9, 0.0, 2022-07-10 18:30:43.237
35.0, 25177.250823646882, 7171.288987551808, -31403.798628306227, -53418.56818420508, -1862.1461823160867, 6946.430438331418, -26580.69450625116, -6186.426423362068, 0.036000000000000004, 0.862, 0.47400000000000003, 192.0, 0.0, 0.0, 0.0, 0.0, 0.0, 0.0, 0.0, 0.0, 0.0, 1.657492243243972E9, 0.0, 2022-07-10 18:30:43.243
36.0, 23972.491797505834, 6816.410340834897, -31476.75472220835, -53433.00741112321, -1939.9302530205553, 7859.74506851972, -26633.98106503261, -5923.6593155454775, 0.036000000000000004, 0.862, 0.47400000000000003, 192.0, 0.0, 0.0, 0.0, 0.0, 0.0, 0.0, 0.0, 0.0, 0.0, 1.657492243243989E9, 0.0, 2022-07-10 18:30:43.243
37.0, 23201.423669031105, 6779.239389805722, -31536.90326653758, -53528.42700820292, -1993.0827013352755, 8379.713699783528, -26702.355051321396, -6014.80972943422, 0.03, 0.85, 0.47400000000000003, 192.0, 0.0, 240.0, 26.0, 144.0, 14.0, 208.0, 0.0, 0.0, 0.0, 1.657492243253404E9, 0.0, 2022-07-10 18:30:43.253
38.0, 24272.85453949625, 7118.270649703819, -31466.249402314355, -53521.274449977216, -1909.1295491611422, 7553.59322471538, -26643.525259915026, -6271.877142414706, 0.03, 0.85, 0.47400000000000003, 192.0, 0.0, 0.0, 0.0, 0.0, 0.0, 0.0, 0.0, 0.0, 0.0, 1.65749224325343E9, 0.0, 2022-07-10 18:30:43.253
39.0, 25215.204085731995, 7204.078996667743, -31403.955090517415, -53431.48749250025, -1856.8264671357235, 6921.687057219393, -26577.49820679405, -6226.704266870531, 0.03, 0.85, 0.47400000000000003, 192.0, 0.0, 0.0, 0.0, 0.0, 0.0, 0.0, 0.0, 0.0, 0.0, 1.657492243259331E9, 0.0, 2022-07-10 18:30:43.259
40.0, 24228.687492452562, 6863.080783257578, -31457.80044291025, -53430.749884933226, -1919.9477934775107, 7649.482208428647, -26599.805247760447, -5956.874007806064, 0.03, 0.85, 0.47400000000000003, 192.0, 0.0, 0.0, 0.0, 0.0, 0.0, 0.0, 0.0, 0.0, 0.0, 1.657492243266044E9, 0.0, 2022-07-10 18:30:43.266
41.0, 23164.677401146582, 6744.974165555735, -31530.689481579007, -53522.459092433346, -1986.287771020862, 8368.80604848934, -26687.915824403266, -5971.045013790729, 0.03, 0.85, 0.47400000000000003, 192.0, 0.0, 0.0, 0.0, 0.0, 0.0, 0.0, 0.0, 0.0, 0.0, 1.657492243266126E9, 0.0, 2022-07-10 18:30:43.266
42.0, 24000.923216452982, 7063.106544388122, -31481.51564377733, -53536.13836003999, -1931.7718662943682, 7739.045648461062, -26675.108274830374, -6238.796560620852, 0.03, 0.85, 0.47400000000000003, 192.0, 0.0, 0.0, 0.0, 0.0, 0.0, 0.0, 0.0, 0.0, 0.0, 1.657492243273582E9, 0.0, 2022-07-10 18:30:43.273
43.0, 25176.155588168574, 7213.757302016891, -31409.140695231046, -53454.15216137793, -1867.8011736632793, 6946.430438331418, -26615.250303179062, -6276.86158142824, 0.03, 0.85, 0.47400000000000003, 192.0, 0.0, 0.0, 0.0, 0.0, 0.0, 0.0, 0.0, 0.0, 0.0, 1.657492243273636E9, 0.0, 2022-07-10 18:30:43.273
44.0, 24493.332146803397, 6903.962123866335, -31452.525431218797, -53428.04532385413, -1914.3375056192288, 7464.7897439944445, -26617.59723634687, -6009.288848553759, 0.03, 0.85, 0.47400000000000003, 192.0, 0.0, 0.0, 0.0, 0.0, 0.0, 0.0, 0.0, 0.0, 0.0, 1.657492243281977E9, 0.0, 2022-07-10 18:30:43.281
45.0, 23218.992140172977, 6702.416444112831, -31544.927542797035, -53515.820624330125, -1999.6764659495911, 8342.02865863188, -26695.80599019599, -5955.108219994095, 0.03, 0.85, 0.47400000000000003, 192.0, 0.0, 0.0, 0.0, 0.0, 0.0, 0.0, 0.0, 0.0, 0.0, 1.657492243282034E9, 0.0, 2022-07-10 18:30:43.282
46.0, 23752.349466365515, 6978.773412558247, -31506.773115011827, -53537.30065075167, -1955.621177628181, 7916.071464547094, -26674.728295174635, -6202.966714258995, 0.03, 0.85, 0.47400000000000003, 192.0, 0.0, 0.0, 0.0, 0.0, 0.0, 0.0, 0.0, 0.0, 0.0, 1.657492243289567E9, 0.0, 2022-07-10 18:30:43.289
47.0, 25085.16163649102, 7229.180005691052, -31410.50415164282, -53448.9665566643, -1865.3424817731957, 7017.57604093266, -26599.22410240461, -6273.039433126382, 0.032, 0.852, 0.47800000000000004, 192.0, 1.0, 0.0, 26.0, 160.0, 14.0, 240.0, 0.0, 0.0, 0.0, 1.657492243289619E9, 0.0, 2022-07-10 18:30:43.289
48.0, 24755.629867986427, 6984.987197516823, -31440.41078572402, -53413.8072626361, -1901.0605694127762, 7299.051558858342, -26594.06084943543, -6035.5968517776555, 0.032, 0.852, 0.47800000000000004, 192.0, 0.0, 0.0, 0.0, 0.0, 0.0, 0.0, 0.0, 0.0, 0.0, 1.657492243296241E9, 0.0, 2022-07-10 18:30:43.296
49.0, 23344.43013005616, 6703.6457900578735, -31538.736109582915, -53501.60491485654, -1994.4461577470493, 8256.600291323697, -26680.13741733282, -5934.455208117391, 0.032, 0.852, 0.47800000000000004, 192.0, 0.0, 0.0, 0.0, 0.0, 0.0, 0.0, 0.0, 0.0, 0.0, 1.657492243296284E9, 0.0, 2022-07-10 18:30:43.296
50.0, 23519.84662054141, 6929.219595100832, -31514.506818593363, -53539.78169438621, -1964.4724684324824, 8061.2236930398585, -26673.074266084943, -6154.21755960197, 0.032, 0.852, 0.47800000000000004, 192.0, 0.0, 0.0, 0.0, 0.0, 0.0, 0.0, 0.0, 0.0, 0.0, 1.657492243305688E9, 0.0, 2022-07-10 18:30:43.305
51.0, 24911.376823351005, 7217.177118918553, -31431.60419840863, -53468.09964991804, -1888.2977233287959, 7112.302733934252, -26615.94320725718, -6298.073386916326, 0.032, 0.852, 0.47800000000000004, 192.0, 0.0, 0.0, 0.0, 0.0, 0.0, 0.0, 0.0, 0.0, 0.0, 1.657492243305708E9, 0.0, 2022-07-10 18:30:43.305
52.0, 24956.862623317556, 7041.939442388945, -31435.225181010388, -53421.160986561896, -1905.620325281659, 7132.329896966207, -26611.383451388294, -6112.442149215001, 0.032, 0.852, 0.47800000000000004, 192.0, 0.0, 0.0, 0.0, 0.0, 0.0, 0.0, 0.0, 0.0, 0.0, 1.657492243312498E9, 0.0, 2022-07-10 18:30:43.312
53.0, 23520.114841474875, 6715.7380838081945, -31526.107373965668, -53483.790574525665, -1998.1788990710854, 8118.958248967916, -26667.106350315375, -5920.351257366092, 0.032, 0.852, 0.47800000000000004, 192.0, 0.0, 0.0, 0.0, 0.0, 0.0, 0.0, 0.0, 0.0, 0.0, 1.65749224331256E9, 0.0, 2022-07-10 18:30:43.312
54.0, 23340.004484654008, 6869.898065316447, -31532.589379857705, -53540.60870893106, -1988.8805733776778, 8187.578104445709, -26683.89251040131, -6099.366378708646, 0.032, 0.852, 0.47800000000000004, 192.0, 0.0, 0.0, 0.0, 0.0, 0.0, 0.0, 0.0, 0.0, 0.0, 1.657492243319251E9, 0.0, 2022-07-10 18:30:43.319
55.0, 24706.36662320693, 7223.614421321681, -31436.40982346652, -53476.68271978888, -1893.5503832757931, 7240.579395363259, -26631.65648360926, -6293.625389769721, 0.032, 0.852, 0.47800000000000004, 192.0, 0.0, 0.0, 0.0, 0.0, 0.0, 0.0, 0.0, 0.0, 0.0, 1.657492243326064E9, 0.0, 2022-07-10 18:30:43.326
56.0, 25116.58818919518, 7132.620469644126, -31404.156256217513, -53396.66347463888, -1872.4503365099833, 7018.090131055133, -26590.506922067038, -6145.813303686775, 0.032, 0.852, 0.47800000000000004, 192.0, 0.0, 0.0, 0.0, 0.0, 0.0, 0.0, 0.0, 0.0, 0.0, 1.657492243326093E9, 0.0, 2022-07-10 18:30:43.326
57.0, 23750.538975064635, 6756.686479650317, -31499.441742830488, -53445.74790546273, -1970.932122580066, 7967.681642494398, -26658.724446144635, -5927.503815591791, 0.032, 0.86, 0.484, 192.0, 1.0, 0.0, 26.0, 224.0, 15.0, 32.0, 0.0, 0.0, 0.0, 1.657492243334599E9, 0.0, 2022-07-10 18:30:43.334
58.0, 23204.64232023267, 6803.267515095176, -31534.39987115859, -53525.20835700135, -1995.6084484587252, 8280.024919512858, -26694.777809951047, -6054.841703753675, 0.032, 0.86, 0.484, 192.0, 0.0, 0.0, 0.0, 0.0, 0.0, 0.0, 0.0, 0.0, 0.0, 1.657492243334659E9, 0.0, 2022-07-10 18:30:43.334
59.0, 24461.79383537696, 7155.978042599922, -31458.202774310445, -53488.70795830584, -1920.9312702335442, 7416.666438182168, -26652.80123386398, -6284.751747220963, 0.032, 0.86, 0.484, 192.0, 0.0, 0.0, 0.0, 0.0, 0.0, 0.0, 0.0, 0.0, 0.0, 1.657492243341868E9, 0.0, 2022-07-10 18:30:43.341
60.0, 25208.833838562234, 7164.382298515117, -31417.276730212776, -53416.265954526185, -1881.3016273142848, 6963.28365365072, -26588.36115459933, -6200.485670624455, 0.032, 0.86, 0.484, 192.0, 0.0, 0.0, 0.0, 0.0, 0.0, 0.0, 0.0, 0.0, 0.0, 1.657492243341888E9, 0.0, 2022-07-10 18:30:43.341
61.0, 24015.809478260217, 6807.357884330498, -31487.215338613434, -53438.32712630357, -1955.7552880949127, 7795.282637510614, -26633.35521618786, -5959.489161907335, 0.032, 0.86, 0.484, 192.0, 0.0, 0.0, 0.0, 0.0, 0.0, 0.0, 0.0, 0.0, 0.0, 1.657492243348909E9, 0.0, 2022-07-10 18:30:43.348
62.0, 23143.353836936218, 6770.119878067956, -31539.04903400529, -53517.47465341981, -2009.9359166545769, 8332.305649793821, -26709.485257802637, -6030.411247064024, 0.032, 0.86, 0.484, 192.0, 0.0, 0.0, 0.0, 0.0, 0.0, 0.0, 0.0, 0.0, 0.0, 1.657492243348937E9, 0.0, 2022-07-10 18:30:43.348
63.0, 24196.948015326027, 7103.809071041235, -31472.731408206393, -53502.186060212385, -1937.0468779858206, 7586.360882086859, -26682.260833056072, -6265.663357456131, 0.032, 0.86, 0.484, 192.0, 0.0, 0.0, 0.0, 0.0, 0.0, 0.0, 0.0, 0.0, 0.0, 1.657492243356515E9, 0.0, 2022-07-10 18:30:43.356
64.0, 25217.640425877624, 7217.914726485578, -31394.83557877965, -53411.370922490474, -1859.9333596150113, 6920.569469996628, -26593.099724423853, -6232.113389028716, 0.032, 0.86, 0.484, 192.0, 0.0, 0.0, 0.0, 0.0, 0.0, 0.0, 0.0, 0.0, 0.0, 1.657492243356551E9, 0.0, 2022-07-10 18:30:43.356
65.0, 24291.00415599396, 6879.062280543123, -31449.195021294956, -53404.06190205359, -1917.3102876317846, 7591.971169945142, -26589.322279610908, -5955.51055139429, 0.032, 0.86, 0.484, 192.0, 0.0, 0.0, 0.0, 0.0, 0.0, 0.0, 0.0, 0.0, 0.0, 1.65749224336457E9, 0.0, 2022-07-10 18:30:43.364
66.0, 23143.39854042513, 6720.1413774658895, -31532.701138579985, -53501.22493520081, -1997.7318641819793, 8336.016039373402, -26682.46199875617, -5968.720432367377, 0.032, 0.86, 0.484, 192.0, 0.0, 0.0, 0.0, 0.0, 0.0, 0.0, 0.0, 0.0, 0.0, 1.65749224336461E9, 0.0, 2022-07-10 18:30:43.364
67.0, 23922.26742771476, 7040.531282488261, -31478.207585597946, -53507.10344399255, -1941.6289855991586, 7767.812343575042, -26656.17634727673, -6220.378723189679, 0.032, 0.858, 0.482, 192.0, 1.0, 0.0, 26.0, 208.0, 15.0, 16.0, 0.0, 0.0, 0.0, 1.657492243371645E9, 0.0, 2022-07-10 18:30:43.371
68.0, 25164.957364196463, 7222.139206187631, -31400.445866637932, -53426.257184297705, -1866.2141998069526, 6962.881322250524, -26579.800436472946, -6257.750839918953, 0.032, 0.858, 0.482, 192.0, 0.0, 0.0, 0.0, 0.0, 0.0, 0.0, 0.0, 0.0, 0.0, 1.657492243371666E9, 0.0, 2022-07-10 18:30:43.371
69.0, 24559.940345280214, 6939.747266739281, -31436.74509963335, -53404.33012298705, -1909.6659910280696, 7414.587725947825, -26594.530236068993, -6005.37729327408, 0.032, 0.858, 0.482, 192.0, 0.0, 0.0, 0.0, 0.0, 0.0, 0.0, 0.0, 0.0, 0.0, 1.657492243378264E9, 0.0, 2022-07-10 18:30:43.378
70.0, 23229.74332925598, 6728.836206059004, -31527.224961188433, -53488.86442051702, -1998.7376926824682, 8312.747873395429, -26680.964431877666, -5938.769094797265, 0.032, 0.858, 0.482, 192.0, 0.0, 0.0, 0.0, 0.0, 0.0, 0.0, 0.0, 0.0, 0.0, 1.657492243378285E9, 0.0, 2022-07-10 18:30:43.378
71.0, 23687.752924889675, 6990.776299330748, -31492.71386774944, -53514.52422315171, -1955.9564537950105, 7948.90617715194, -26672.403713751282, -6192.528449598366, 0.032, 0.858, 0.482, 192.0, 0.0, 0.0, 0.0, 0.0, 0.0, 0.0, 0.0, 0.0, 0.0, 1.657492243386133E9, 0.0, 2022-07-10 18:30:43.386
72.0, 25058.451301866928, 7238.791255806835, -31407.754887074818, -53431.86747215599, -1875.8030981782792, 7031.165901561488, -26603.023898962012, -6285.377596065712, 0.032, 0.858, 0.482, 192.0, 0.0, 0.0, 0.0, 0.0, 0.0, 0.0, 0.0, 0.0, 0.0, 1.657492243394332E9, 0.0, 2022-07-10 18:30:43.394
73.0, 24824.048557764123, 7018.693628155426, -31413.834561566662, -53382.47011690976, -1890.3987873075948, 7242.903976786612, -26594.239663391076, -6051.19836940746, 0.032, 0.858, 0.482, 192.0, 0.0, 0.0, 0.0, 0.0, 0.0, 0.0, 0.0, 0.0, 0.0, 1.657492243394382E9, 0.0, 2022-07-10 18:30:43.394
74.0, 23387.032554987974, 6739.989726542202, -31506.259024889354, -53450.08414388706, -1985.77368089839, 8211.449767523976, -26695.47071402916, -5914.025713685241, 0.032, 0.858, 0.482, 192.0, 0.0, 0.0, 0.0, 0.0, 0.0, 0.0, 0.0, 0.0, 0.0, 1.65749224340132E9, 0.0, 2022-07-10 18:30:43.401
75.0, 23478.07121015444, 6943.480008063318, -31507.510722578852, -53506.097615492065, -1975.4471749600382, 8099.065196402693, -26705.57370252296, -6126.724913921942, 0.032, 0.858, 0.482, 192.0, 0.0, 0.0, 0.0, 0.0, 0.0, 0.0, 0.0, 0.0, 0.0, 1.657492243401447E9, 0.0, 2022-07-10 18:30:43.401
76.0, 24873.758837432724, 7237.9195377730775, -31424.004605293827, -53450.33001307607, -1886.7331012169245, 7149.9877750859, -26627.78963181849, -6285.936389677095, 0.032, 0.858, 0.482, 192.0, 0.0, 0.0, 0.0, 0.0, 0.0, 0.0, 0.0, 0.0, 0.0, 1.657492243410227E9, 0.0, 2022-07-10 18:30:43.410
77.0, 25013.18901934493, 7069.722660746892, -31423.15523900452, -53399.636256651436, -1892.9468861755, 7116.951896780956, -26583.533177796984, -6105.200184011482, 0.032, 0.858, 0.484, 192.0, 1.0, 0.0, 26.0, 208.0, 15.0, 32.0, 0.0, 0.0, 0.0, 1.657492243410247E9, 0.0, 2022-07-10 18:30:43.410
78.0, 23579.95046138173, 6744.57183415554, -31504.359126610652, -53455.3144520896, -1979.4704889619934, 8094.147812622526, -26630.561248130947, -5899.720597233844, 0.032, 0.858, 0.484, 192.0, 0.0, 0.0, 0.0, 0.0, 0.0, 0.0, 0.0, 0.0, 0.0, 1.657492243417209E9, 0.0, 2022-07-10 18:30:43.417
79.0, 23312.444783740615, 6869.540437405162, -31516.42906861652, -53510.567964383124, -1979.6716546620912, 8225.352552575177, -26673.543652718505, -6065.4140788810355, 0.032, 0.858, 0.484, 192.0, 0.0, 0.0, 0.0, 0.0, 0.0, 0.0, 0.0, 0.0, 0.0, 1.657492243417275E9, 0.0, 2022-07-10 18:30:43.417
80.0, 24654.15294815933, 7201.6426565221145, -31435.761622877315, -53466.69149001736, -1895.0032466653881, 7289.976750609488, -26636.64092262279, -6286.0034449104605, 0.032, 0.858, 0.484, 192.0, 0.0, 0.0, 0.0, 0.0, 0.0, 0.0, 0.0, 0.0, 0.0, 1.657492243424925E9, 0.0, 2022-07-10 18:30:43.424
81.0, 25152.105111134664, 7148.311394251752, -31413.29811969973, -53401.916134585874, -1879.0217493798436, 7001.1922122469205, -26614.89267526778, -6161.481876549945, 0.032, 0.858, 0.484, 192.0, 0.0, 0.0, 0.0, 0.0, 0.0, 0.0, 0.0, 0.0, 0.0, 1.657492243424944E9, 0.0, 2022-07-10 18:30:43.424
82.0, 23831.04995859265, 6791.264628322677, -31496.044277673278, -53443.28921357265, -1968.4287272010718, 7928.364923997513, -26664.893527614302, -5916.417350341958, 0.032, 0.858, 0.484, 192.0, 0.0, 0.0, 0.0, 0.0, 0.0, 0.0, 0.0, 0.0, 0.0, 1.657492243431536E9, 0.0, 2022-07-10 18:30:43.431
83.0, 23203.435326032082, 6801.680541238849, -31531.33768216821, -53525.811854101645, -1999.452948505038, 8314.357198996211, -26688.318155803463, -6031.752351731343, 0.032, 0.858, 0.484, 192.0, 0.0, 0.0, 0.0, 0.0, 0.0, 0.0, 0.0, 0.0, 0.0, 1.657492243431557E9, 0.0, 2022-07-10 18:30:43.431
84.0, 24400.840628247337, 7150.881844864112, -31447.45158522744, -53492.70892056333, -1911.6105927956812, 7453.390354322238, -26638.27259996803, -6272.882970915195, 0.032, 0.858, 0.484, 192.0, 0.0, 0.0, 0.0, 0.0, 0.0, 0.0, 0.0, 0.0, 0.0, 1.657492243439487E9, 0.0, 2022-07-10 18:30:43.439
85.0, 25226.268199237373, 7192.970179673455, -31399.37298290408, -53412.08617831304, -1873.6126272216593, 6945.536368553206, -26595.69252678067, -6201.603257847221, 0.032, 0.858, 0.484, 192.0, 0.0, 0.0, 0.0, 0.0, 0.0, 0.0, 0.0, 0.0, 0.0, 1.657492243439539E9, 0.0, 2022-07-10 18:30:43.439
86.0, 24101.304900801766, 6836.035172466657, -31467.99283838187, -53428.17943432086, -1949.8767793031668, 7744.208901430238, -26654.879946098325, -5948.670917590966, 0.032, 0.858, 0.484, 192.0, 0.0, 0.0, 0.0, 0.0, 0.0, 0.0, 0.0, 0.0, 0.0, 1.6574922434465E9, 0.0, 2022-07-10 18:30:43.446
87.0, 23156.451959187027, 6760.95566284128, -31535.360996170166, -53515.820624330125, -2011.478187021993, 8353.450400048543, -26735.34622613743, -6003.879726395575, 0.034, 0.852, 0.47800000000000004, 192.0, 1.0, 16.0, 26.0, 160.0, 14.0, 240.0, 0.0, 0.0, 0.0, 1.657492243457604E9, 0.0, 2022-07-10 18:30:43.457
88.0, 24138.319389619755, 7093.080233702688, -31469.80332968275, -53508.42219691542, -1932.6659360725805, 7640.22858622415, -26661.27254501254, -6247.670203169609, 0.034, 0.852, 0.47800000000000004, 192.0, 0.0, 0.0, 0.0, 0.0, 0.0, 0.0, 0.0, 0.0, 0.0, 1.657492243457633E9, 0.0, 2022-07-10 18:30:43.457
89.0, 25223.18365850254, 7219.456996852994, -31395.97551774687, -53419.79753015012, -1857.586426447204, 6933.064095147145, -26580.225119617597, -6237.075476297793, 0.034, 0.852, 0.47800000000000004, 192.0, 0.0, 0.0, 0.0, 0.0, 0.0, 0.0, 0.0, 0.0, 0.0, 1.657492243463659E9, 0.0, 2022-07-10 18:30:43.463
90.0, 24371.649249988706, 6896.071958073611, -31455.65467544254, -53418.25525978271, -1927.4132761255833, 7547.088867078885, -26632.215277220643, -5985.394833731036, 0.034, 0.852, 0.47800000000000004, 192.0, 0.0, 0.0, 0.0, 0.0, 0.0, 0.0, 0.0, 0.0, 0.0, 1.657492243463679E9, 0.0, 2022-07-10 18:30:43.463
91.0, 23171.673497161093, 6738.134531752412, -31534.95866476997, -53511.35027543906, -2006.0690648638088, 8319.676914176574, -26714.201475882706, -5976.074156293173, 0.034, 0.852, 0.47800000000000004, 192.0, 0.0, 0.0, 0.0, 0.0, 0.0, 0.0, 0.0, 0.0, 0.0, 1.65749224347213E9, 0.0, 2022-07-10 18:30:43.472
92.0, 23869.562014289146, 7029.087189327144, -31493.42912357201, -53519.55336565416, -1952.8272095712675, 7805.743253915698, -26668.84978638289, -6214.500214397934, 0.034, 0.852, 0.47800000000000004, 192.0, 0.0, 0.0, 0.0, 0.0, 0.0, 0.0, 0.0, 0.0, 0.0, 1.657492243472161E9, 0.0, 2022-07-10 18:30:43.472
93.0, 25147.902983177064, 7225.849595767212, -31407.866645797094, -53432.51567274519, -1871.2433423093967, 6970.793839787703, -26582.504997552038, -6267.451497012556, 0.034, 0.852, 0.47800000000000004, 192.0, 0.0, 0.0, 0.0, 0.0, 0.0, 0.0, 0.0, 0.0, 0.0, 1.657492243478129E9, 0.0, 2022-07-10 18:30:43.478
94.0, 24645.525174799583, 6953.448886090385, -31436.208657766423, -53399.904477584896, -1906.0673601707651, 7373.326405683328, -26600.676965794202, -6011.322857299192, 0.034, 0.852, 0.47800000000000004, 192.0, 0.0, 0.0, 0.0, 0.0, 0.0, 0.0, 0.0, 0.0, 0.0, 1.657492243478148E9, 0.0, 2022-07-10 18:30:43.478
95.0, 23276.011440278464, 6717.816796042538, -31523.492219864398, -53482.538876836166, -1990.2663815339067, 8275.085183988236, -26694.598995995402, -5929.448417359402, 0.034, 0.852, 0.47800000000000004, 192.0, 0.0, 0.0, 0.0, 0.0, 0.0, 0.0, 0.0, 0.0, 0.0, 1.657492243484569E9, 0.0, 2022-07-10 18:30:43.484
96.0, 23634.376959130404, 6966.211732174365, -31497.966527696437, -53518.36872319803, -1961.1867619975524, 7977.136430398993, -26683.445475512206, -6164.9687486849725, 0.034, 0.852, 0.47800000000000004, 192.0, 0.0, 0.0, 0.0, 0.0, 0.0, 0.0, 0.0, 0.0, 0.0, 1.657492243484594E9, 0.0, 2022-07-10 18:30:43.484
97.0, 25004.963577385377, 7237.964241261989, -31406.59259636314, -53440.450542026825, -1869.5669614752487, 7054.210550094909, -26605.862570507834, -6282.0695378863265, 0.032, 0.856, 0.47400000000000003, 192.0, 1.0, 0.0, 26.0, 192.0, 14.0, 208.0, 0.0, 0.0, 0.0, 1.657492243491678E9, 0.0, 2022-07-10 18:30:43.491
98.0, 24865.466340239807, 7028.461340482395, -31422.775259348782, -53396.350550216506, -1889.9964559073992, 7212.192679905019, -26601.191055916675, -6069.77266904982, 0.032, 0.856, 0.47400000000000003, 192.0, 0.0, 0.0, 0.0, 0.0, 0.0, 0.0, 0.0, 0.0, 0.0, 1.657492243491698E9, 0.0, 2022-07-10 18:30:43.491
99.0, 23432.004264832052, 6722.108330977957, -31517.90428375057, -53474.0228621987, -1977.7047011500242, 8186.125241056114, -26667.46397822666, -5920.910050977475, 0.032, 0.856, 0.47400000000000003, 192.0, 0.0, 0.0, 0.0, 0.0, 0.0, 0.0, 0.0, 0.0, 0.0, 1.657492243499705E9, 0.0, 2022-07-10 18:30:43.499
100.0, 23421.454241449148, 6896.094309818067, -31518.038394217303, -53529.49989193677, -1976.5424104383483, 8117.125405922581, -26681.56792897796, -6123.573317953744, 0.032, 0.856, 0.47400000000000003, 192.0, 0.0, 0.0, 0.0, 0.0, 0.0, 0.0, 0.0, 0.0, 0.0, 1.657492243499742E9, 0.0, 2022-07-10 18:30:43.499
101.0, 24811.553932613606, 7226.2966306563185, -31432.45356469793, -53461.72940274828, -1890.0858628852204, 7171.423098018539, -26630.360082430852, -6297.671055516131, 0.032, 0.856, 0.47400000000000003, 192.0, 0.0, 0.0, 0.0, 0.0, 0.0, 0.0, 0.0, 0.0, 0.0, 1.65749224350682E9, 0.0, 2022-07-10 18:30:43.506
102.0, 25055.43381636546, 7092.968474980411, -31426.485648928363, -53405.224192765265, -1890.778766963335, 7076.025852683289, -26623.766317816535, -6142.460542018479, 0.032, 0.856, 0.47400000000000003, 192.0, 0.0, 0.0, 0.0, 0.0, 0.0, 0.0, 0.0, 0.0, 0.0, 1.657492243514755E9, 0.0, 2022-07-10 18:30:43.514
103.0, 23646.893936025375, 6744.929462066825, -31514.730336037916, -53460.7682777367, -1984.7678523979012, 8033.865157826563, -26685.680649957736, -5922.497024833801, 0.032, 0.856, 0.47400000000000003, 192.0, 0.0, 0.0, 0.0, 0.0, 0.0, 0.0, 0.0, 0.0, 0.0, 1.657492243514801E9, 0.0, 2022-07-10 18:30:43.514
104.0, 23268.680068097125, 6847.993355750246, -31528.454307133474, -53520.73800811029, -1983.3149890083064, 8219.071712383236, -26691.71562096067, -6063.5812358357, 0.032, 0.856, 0.47400000000000003, 192.0, 0.0, 0.0, 0.0, 0.0, 0.0, 0.0, 0.0, 0.0, 0.0, 1.657492243521409E9, 0.0, 2022-07-10 18:30:43.521
105.0, 24585.71190663718, 7189.282141838329, -31441.193096779956, -53471.564170308615, -1895.5620402767709, 7315.9271259221, -26619.050099736465, -6267.04916561236, 0.032, 0.856, 0.47400000000000003, 192.0, 0.0, 0.0, 0.0, 0.0, 0.0, 0.0, 0.0, 0.0, 0.0, 1.657492243521435E9, 0.0, 2022-07-10 18:30:43.521
106.0, 25175.485035834914, 7155.553359455271, -31414.34865168913, -53400.48562294074, -1873.076185354732, 6977.968749757857, -26599.738192527082, -6164.856989962696, 0.032, 0.856, 0.47400000000000003, 192.0, 0.0, 0.0, 0.0, 0.0, 0.0, 0.0, 0.0, 0.0, 0.0, 1.657492243529395E9, 0.0, 2022-07-10 18:30:43.529
107.0, 23890.639709310497, 6794.013892890679, -31494.122027650123, -53432.35921053401, -1949.228578713963, 7859.141571419427, -26646.90037332778, -5919.233670143327, 0.03, 0.86, 0.48, 192.0, 0.0, 240.0, 26.0, 224.0, 15.0, 0.0, 0.0, 0.0, 0.0, 1.657492243529415E9, 0.0, 2022-07-10 18:30:43.529
108.0, 23174.959203596023, 6790.035282377635, -31544.68167360803, -53523.375513956016, -1999.4082450161275, 8291.31255046279, -26705.372536822862, -6018.967153902907, 0.03, 0.86, 0.48, 192.0, 0.0, 0.0, 0.0, 0.0, 0.0, 0.0, 0.0, 0.0, 0.0, 1.657492243536595E9, 0.0, 2022-07-10 18:30:43.536
109.0, 24325.582304666317, 7128.775969597813, -31474.60895474064, -53503.48246139079, -1924.552252835304, 7477.038499955953, -26664.84882412539, -6272.815915681829, 0.03, 0.86, 0.48, 192.0, 0.0, 0.0, 0.0, 0.0, 0.0, 0.0, 0.0, 0.0, 0.0, 1.657492243536622E9, 0.0, 2022-07-10 18:30:43.536
110.0, 25222.28958872433, 7178.732118455425, -31421.098878514636, -53421.83153889555, -1873.8584964106676, 6921.0835601191, -26604.40970711824, -6223.5526709023325, 0.03, 0.86, 0.48, 192.0, 0.0, 0.0, 0.0, 0.0, 0.0, 0.0, 0.0, 0.0, 0.0, 1.657492243543952E9, 0.0, 2022-07-10 18:30:43.543
111.0, 24156.893689262117, 6832.525948587174, -31483.303783333755, -53428.9617453768, -1944.8923402896335, 7665.463705714191, -26631.008283020055, -5957.544560139723, 0.03, 0.86, 0.48, 192.0, 0.0, 0.0, 0.0, 0.0, 0.0, 0.0, 0.0, 0.0, 0.0, 1.657492243543971E9, 0.0, 2022-07-10 18:30:43.543
112.0, 23135.15074672112, 6739.9226713088365, -31543.094699751702, -53511.886717305984, -2002.1575095841301, 8301.460242445499, -26706.847751956913, -5994.849621635631, 0.03, 0.86, 0.48, 192.0, 0.0, 0.0, 0.0, 0.0, 0.0, 0.0, 0.0, 0.0, 0.0, 1.657492243552011E9, 0.0, 2022-07-10 18:30:43.552
113.0, 24059.417731692523, 7065.274663600286, -31486.835358957695, -53505.963505025335, -1946.2557967014072, 7654.08666778644, -26686.395905780308, -6244.451551968044, 0.03, 0.86, 0.48, 192.0, 0.0, 0.0, 0.0, 0.0, 0.0, 0.0, 0.0, 0.0, 0.0, 1.657492243552039E9, 0.0, 2022-07-10 18:30:43.552
114.0, 25206.486905394424, 7202.357912344684, -31426.820925095195, -53434.169701834886, -1893.4162728090612, 6937.288574849198, -26634.159878988252, -6255.560368962332, 0.03, 0.86, 0.48, 192.0, 0.0, 0.0, 0.0, 0.0, 0.0, 0.0, 0.0, 0.0, 0.0, 1.657492243559879E9, 0.0, 2022-07-10 18:30:43.559
115.0, 24432.445994907142, 6890.729891148793, -31462.114329590124, -53419.059922583096, -1925.5357295913375, 7482.425270369682, -26617.843105535878, -5992.99442684584, 0.03, 0.86, 0.48, 192.0, 0.0, 0.0, 0.0, 0.0, 0.0, 0.0, 0.0, 0.0, 0.0, 1.657492243559898E9, 0.0, 2022-07-10 18:30:43.559
116.0, 23175.808569885325, 6710.239554672188, -31538.2443712049, -53500.44262414487, -1996.1448903256526, 8282.058928258291, -26690.978013393644, -5958.885664807041, 0.03, 0.86, 0.48, 192.0, 0.0, 0.0, 0.0, 0.0, 0.0, 0.0, 0.0, 0.0, 0.0, 1.657492243566282E9, 0.0, 2022-07-10 18:30:43.566
117.0, 23792.627309873977, 7001.259267480286, -31504.895568477583, -53524.85072909007, -1959.063346274298, 7819.489576755712, -26687.24527206961, -6216.266002209903, 0.034, 0.86, 0.47600000000000003, 192.0, 1.0, 16.0, 26.0, 224.0, 14.0, 224.0, 0.0, 0.0, 0.0, 1.657492243573502E9, 0.0, 2022-07-10 18:30:43.573
118.0, 25102.43953495497, 7221.692171298525, -31419.44484942494, -53442.70806821681, -1881.7710139478463, 6962.367232128052, -26614.82562003441, -6297.514593304943, 0.034, 0.86, 0.47600000000000003, 192.0, 0.0, 0.0, 0.0, 0.0, 0.0, 0.0, 0.0, 0.0, 0.0, 1.657492243573524E9, 0.0, 2022-07-10 18:30:43.573
119.0, 24682.852588039947, 6964.401240873485, -31449.016207339315, -53413.56139344709, -1916.2150521534745, 7288.076852330787, -26624.392166661284, -6069.482096371901, 0.034, 0.86, 0.47600000000000003, 192.0, 0.0, 0.0, 0.0, 0.0, 0.0, 0.0, 0.0, 0.0, 0.0, 1.657492243581803E9, 0.0, 2022-07-10 18:30:43.581
120.0, 23281.219396736553, 6711.088920961491, -31537.68557759352, -53490.786670540176, -1996.8824978926777, 8192.987226603893, -26731.322912135474, -5968.586321900645, 0.034, 0.86, 0.47600000000000003, 192.0, 0.0, 0.0, 0.0, 0.0, 0.0, 0.0, 0.0, 0.0, 0.0, 1.657492243581836E9, 0.0, 2022-07-10 18:30:43.581
121.0, 23558.98452508265, 6940.5519295396725, -31517.166676183544, -53516.75939759724, -1965.6571108886137, 7966.675813993909, -26709.686423502735, -6173.618873789176, 0.034, 0.86, 0.47600000000000003, 192.0, 0.0, 0.0, 0.0, 0.0, 0.0, 0.0, 0.0, 0.0, 0.0, 1.657492243589733E9, 0.0, 2022-07-10 18:30:43.589
122.0, 24972.12886478053, 7213.042046194321, -31434.84520135465, -53447.11136187451, -1884.7437959604022, 7079.35626260713, -26607.337785641885, -6290.138517634692, 0.034, 0.86, 0.47600000000000003, 192.0, 0.0, 0.0, 0.0, 0.0, 0.0, 0.0, 0.0, 0.0, 0.0, 1.657492243589889E9, 0.0, 2022-07-10 18:30:43.589
123.0, 24923.84909675707, 7039.950137132423, -31429.391375707553, -53392.68486412583, -1887.6271709951368, 7152.759391398357, -26603.40387861775, -6088.257561714359, 0.034, 0.86, 0.47600000000000003, 192.0, 0.0, 0.0, 0.0, 0.0, 0.0, 0.0, 0.0, 0.0, 0.0, 1.657492243597534E9, 0.0, 2022-07-10 18:30:43.597
124.0, 23467.45413153817, 6736.86048231846, -31510.416449358043, -53450.039440398155, -1971.9155993360996, 8096.5618010236985, -26658.83620486691, -5920.060684688174, 0.034, 0.86, 0.47600000000000003, 192.0, 0.0, 0.0, 0.0, 0.0, 0.0, 0.0, 0.0, 0.0, 0.0, 1.657492243597587E9, 0.0, 2022-07-10 18:30:43.597
125.0, 23363.853795987823, 6896.608399940539, -31510.483504591408, -53500.66614158943, -1967.489953933949, 8096.382987068056, -26677.678725442736, -6110.452843958479, 0.034, 0.86, 0.47600000000000003, 192.0, 0.0, 0.0, 0.0, 0.0, 0.0, 0.0, 0.0, 0.0, 0.0, 1.657492243604436E9, 0.0, 2022-07-10 18:30:43.604
126.0, 24759.407312799372, 7211.253906637897, -31436.49923044434, -53450.642937498444, -1893.7962524648015, 7196.322941341751, -26624.481573639107, -6294.67592175912, 0.034, 0.86, 0.47600000000000003, 192.0, 0.0, 0.0, 0.0, 0.0, 0.0, 0.0, 0.0, 0.0, 0.0, 1.657492243604482E9, 0.0, 2022-07-10 18:30:43.604
127.0, 25083.865235312613, 7111.565126367227, -31418.12609650208, -53393.22130599276, -1880.5193162583491, 7028.684857926948, -26610.51173335454, -6136.470274504456, 0.034, 0.866, 0.47000000000000003, 192.0, 1.0, 16.0, 27.0, 16.0, 14.0, 176.0, 0.0, 0.0, 0.0, 1.657492243612657E9, 0.0, 2022-07-10 18:30:43.612
128.0, 23683.72961088772, 6744.214206244255, -31506.48254233391, -53440.584652493555, -1976.7659278829012, 7957.399840044956, -26674.28126028553, -5924.866309746064, 0.034, 0.866, 0.47000000000000003, 192.0, 0.0, 0.0, 0.0, 0.0, 0.0, 0.0, 0.0, 0.0, 0.0, 1.657492243612744E9, 0.0, 2022-07-10 18:30:43.612
129.0, 23220.780279729403, 6812.342323344032, -31533.125821724636, -53512.669028361925, -1993.8650123912112, 8206.130052343613, -26714.00031018261, -6072.767802806831, 0.034, 0.866, 0.47000000000000003, 192.0, 0.0, 0.0, 0.0, 0.0, 0.0, 0.0, 0.0, 0.0, 0.0, 1.65749224361901E9, 0.0, 2022-07-10 18:30:43.619
130.0, 24521.160068650257, 7161.297757780285, -31446.04342532676, -53466.110344661516, -1905.262697370374, 7342.972736713021, -26646.56509716095, -6278.627369240209, 0.034, 0.866, 0.47000000000000003, 192.0, 0.0, 0.0, 0.0, 0.0, 0.0, 0.0, 0.0, 0.0, 0.0, 1.657492243619043E9, 0.0, 2022-07-10 18:30:43.619
131.0, 25201.234245447427, 7161.051888591277, -31401.3622881606, -53384.43707042182, -1858.614606692148, 6960.579092571627, -26541.44484298764, -6154.038745646328, 0.034, 0.866, 0.47000000000000003, 192.0, 0.0, 0.0, 0.0, 0.0, 0.0, 0.0, 0.0, 0.0, 0.0, 1.657492243626278E9, 0.0, 2022-07-10 18:30:43.626
132.0, 23952.41993098497, 6802.395797061419, -31478.967544909425, -53419.7081231723, -1938.9691280089771, 7797.294294511592, -26614.60210258986, -5922.631135300534, 0.034, 0.866, 0.47000000000000003, 192.0, 0.0, 0.0, 0.0, 0.0, 0.0, 0.0, 0.0, 0.0, 0.0, 1.65749224362638E9, 0.0, 2022-07-10 18:30:43.626
133.0, 23140.738682834948, 6778.032395605135, -31529.951874011982, -53499.70501657785, -1988.9252768665883, 8277.409765411589, -26683.221958067654, -6007.880688653075, 0.034, 0.866, 0.47000000000000003, 192.0, 0.0, 0.0, 0.0, 0.0, 0.0, 0.0, 0.0, 0.0, 0.0, 1.657492243633921E9, 0.0, 2022-07-10 18:30:43.633
134.0, 24249.631077007187, 7120.3493619381625, -31461.779053423295, -53477.979120967284, -1922.3617818786838, 7519.864442332321, -26646.22982099412, -6254.8898166286735, 0.034, 0.866, 0.47000000000000003, 192.0, 0.0, 0.0, 0.0, 0.0, 0.0, 0.0, 0.0, 0.0, 0.0, 1.657492243641933E9, 0.0, 2022-07-10 18:30:43.641
135.0, 25228.704539383, 7190.980874416933, -31407.93370103046, -53398.585724662036, -1872.8750196546341, 6929.1078363785555, -26604.253244907053, -6227.419522693101, 0.034, 0.866, 0.47000000000000003, 192.0, 0.0, 0.0, 0.0, 0.0, 0.0, 0.0, 0.0, 0.0, 0.0, 1.657492243641956E9, 0.0, 2022-07-10 18:30:43.641
136.0, 24224.55241972833, 6846.585195849561, -31473.1784430955, -53410.83448062355, -1940.7572675654017, 7619.910850514276, -26657.36098973286, -5985.461888964402, 0.034, 0.866, 0.47000000000000003, 192.0, 0.0, 0.0, 0.0, 0.0, 0.0, 0.0, 0.0, 0.0, 0.0, 1.657492243648589E9, 0.0, 2022-07-10 18:30:43.648
137.0, 23121.024444225364, 6732.1889677273, -31536.47858339293, -53494.698225819855, -2004.1021113517418, 8282.215390469479, -26728.931275478757, -6003.320932784192, 0.03, 0.862, 0.47600000000000003, 192.0, 0.0, 240.0, 26.0, 240.0, 14.0, 224.0, 0.0, 0.0, 0.0, 1.657492243648684E9, 0.0, 2022-07-10 18:30:43.648
138.0, 23973.587032984142, 7060.6478524980375, -31474.206623340444, -53485.131679192986, -1936.1751599520637, 7672.482153473157, -26688.586376736926, -6241.7469908889525, 0.03, 0.862, 0.47600000000000003, 192.0, 0.0, 0.0, 0.0, 0.0, 0.0, 0.0, 0.0, 0.0, 0.0, 1.657492243656463E9, 0.0, 2022-07-10 18:30:43.656
139.0, 25193.344079654704, 7229.269412668874, -31403.68686958395, -53399.45744269579, -1864.0460805947878, 6943.301194107676, -26597.145390170266, -6238.349525731746, 0.03, 0.862, 0.47600000000000003, 192.0, 0.0, 0.0, 0.0, 0.0, 0.0, 0.0, 0.0, 0.0, 0.0, 1.657492243656486E9, 0.0, 2022-07-10 18:30:43.656
140.0, 24507.301987087965, 6913.886298404491, -31450.044387584257, -53392.32723621455, -1917.9137847320778, 7440.694563471623, -26619.40772764775, -5998.023569348285, 0.03, 0.862, 0.47600000000000003, 192.0, 0.0, 0.0, 0.0, 0.0, 0.0, 0.0, 0.0, 0.0, 0.0, 1.657492243664434E9, 0.0, 2022-07-10 18:30:43.664
141.0, 23187.945567124556, 6709.948981994269, -31523.46986811994, -53470.73715576377, -1983.2479337749403, 8248.464256341966, -26684.33954529042, -5941.630118087544, 0.03, 0.862, 0.47600000000000003, 192.0, 0.0, 0.0, 0.0, 0.0, 0.0, 0.0, 0.0, 0.0, 0.0, 1.657492243664454E9, 0.0, 2022-07-10 18:30:43.664
142.0, 23725.415614296868, 6987.848220807103, -31489.226995614412, -53488.03740597217, -1940.3772879096614, 7845.8646352129745, -26652.08597804141, -6178.156277913604, 0.03, 0.862, 0.47600000000000003, 192.0, 0.0, 0.0, 0.0, 0.0, 0.0, 0.0, 0.0, 0.0, 0.0, 1.657492243671816E9, 0.0, 2022-07-10 18:30:43.671
143.0, 25086.68155511398, 7219.47934859745, -31409.58773012015, -53412.15323354641, -1873.9479033884888, 6998.554706401194, -26595.93839596968, -6264.009328366438, 0.03, 0.862, 0.47600000000000003, 192.0, 0.0, 0.0, 0.0, 0.0, 0.0, 0.0, 0.0, 0.0, 0.0, 1.657492243671875E9, 0.0, 2022-07-10 18:30:43.671
144.0, 24754.400522041386, 6981.14269747051, -31430.911294330515, -53387.320445456564, -1898.8924502006116, 7254.213959480997, -26626.202657962163, -6049.253767639848, 0.03, 0.862, 0.47600000000000003, 192.0, 0.0, 0.0, 0.0, 0.0, 0.0, 0.0, 0.0, 0.0, 0.0, 1.657492243679067E9, 0.0, 2022-07-10 18:30:43.679
145.0, 23308.868504627768, 6717.973258253724, -31517.90428375057, -53460.790629481155, -1978.6211226726919, 8155.905682552539, -26695.67187972926, -5935.103408706595, 0.03, 0.862, 0.47600000000000003, 192.0, 0.0, 0.0, 0.0, 0.0, 0.0, 0.0, 0.0, 0.0, 0.0, 1.65749224367909E9, 0.0, 2022-07-10 18:30:43.679
146.0, 23495.192646407206, 6935.478083548318, -31502.90626322106, -53493.4241763859, -1963.3101777208065, 8000.404596376968, -26694.487237273126, -6143.7792949413415, 0.03, 0.862, 0.47600000000000003, 192.0, 0.0, 0.0, 0.0, 0.0, 0.0, 0.0, 0.0, 0.0, 0.0, 1.657492243687277E9, 0.0, 2022-07-10 18:30:43.687
147.0, 24913.388480351983, 7231.593994092226, -31415.510942400808, -53425.832501153054, -1882.1062901146759, 7096.030663970789, -26620.97234975962, -6288.573895522821, 0.038, 0.868, 0.47000000000000003, 192.0, 1.0, 48.0, 27.0, 32.0, 14.0, 176.0, 0.0, 0.0, 0.0, 1.657492243687316E9, 0.0, 2022-07-10 18:30:43.687
148.0, 24974.453446203883, 7056.848055940635, -31419.22133198039, -53380.70432909779, -1889.6164762516592, 7122.048094516766, -26601.392221616774, -6100.953352564973, 0.038, 0.868, 0.47000000000000003, 192.0, 0.0, 0.0, 0.0, 0.0, 0.0, 0.0, 0.0, 0.0, 0.0, 1.657492243694527E9, 0.0, 2022-07-10 18:30:43.694
149.0, 23522.729995576145, 6731.831339816015, -31503.912091721548, -53449.748867720235, -1969.7474801239348, 8062.385983751534, -26657.450396710683, -5926.900318491497, 0.038, 0.868, 0.47000000000000003, 192.0, 0.0, 0.0, 0.0, 0.0, 0.0, 0.0, 0.0, 0.0, 0.0, 1.657492243703839E9, 0.0, 2022-07-10 18:30:43.703
150.0, 23325.677016458158, 6870.680376372383, -31510.170580169033, -53501.31434217863, -1976.162430782608, 8135.453836375933, -26694.151961106298, -6100.662779887054, 0.038, 0.868, 0.47000000000000003, 192.0, 0.0, 0.0, 0.0, 0.0, 0.0, 0.0, 0.0, 0.0, 0.0, 1.657492243703859E9, 0.0, 2022-07-10 18:30:43.703
151.0, 24706.56778890703, 7204.369569345662, -31424.83161983867, -53446.329050818575, -1888.9235721735445, 7230.6999243140135, -26605.951977485656, -6288.90917168965, 0.038, 0.868, 0.47000000000000003, 192.0, 0.0, 0.0, 0.0, 0.0, 0.0, 0.0, 0.0, 0.0, 0.0, 1.657492243709902E9, 0.0, 2022-07-10 18:30:43.709
152.0, 25131.005064368852, 7123.4562544174505, -31403.68686958395, -53384.034739021634, -1873.590275477204, 6998.62176163456, -26579.576919028394, -6157.592673014721, 0.038, 0.868, 0.47000000000000003, 192.0, 0.0, 0.0, 0.0, 0.0, 0.0, 0.0, 0.0, 0.0, 0.0, 1.657492243709936E9, 0.0, 2022-07-10 18:30:43.709
153.0, 23751.74596926522, 6762.609691930973, -31487.66237350254, -53430.28049829966, -1955.0400322723428, 7902.2133829848035, -26655.17051877624, -5951.531940881246, 0.038, 0.868, 0.47000000000000003, 192.0, 0.0, 0.0, 0.0, 0.0, 0.0, 0.0, 0.0, 0.0, 0.0, 1.657492243716746E9, 0.0, 2022-07-10 18:30:43.716
154.0, 23189.19726481405, 6805.972076174268, -31516.071440705236, -53497.64865608796, -1974.1507737816303, 8207.560563988753, -26693.660222728282, -6073.39365165158, 0.038, 0.868, 0.47000000000000003, 192.0, 0.0, 0.0, 0.0, 0.0, 0.0, 0.0, 0.0, 0.0, 0.0, 1.657492243716765E9, 0.0, 2022-07-10 18:30:43.716
155.0, 24454.909498084726, 7153.809923387757, -31432.341805975655, -53449.59240550904, -1893.908011187078, 7381.12716449823, -26631.410614420252, -6268.122049346215, 0.038, 0.868, 0.47000000000000003, 192.0, 0.0, 0.0, 0.0, 0.0, 0.0, 0.0, 0.0, 0.0, 0.0, 1.657492243724775E9, 0.0, 2022-07-10 18:30:43.724
156.0, 25214.84645782071, 7162.70591768097, -31392.287479911745, -53377.28451219613, -1857.362909002651, 6939.546101039184, -26583.130846396787, -6184.548876827822, 0.038, 0.868, 0.47000000000000003, 192.0, 0.0, 0.0, 0.0, 0.0, 0.0, 0.0, 0.0, 0.0, 0.0, 1.657492243724801E9, 0.0, 2022-07-10 18:30:43.724
157.0, 24021.553876585233, 6806.866145952481, -31470.89856516106, -53406.6547044104, -1941.8972065326222, 7746.712296809233, -26639.27842846852, -5948.670917590966, 0.034, 0.868, 0.464, 192.0, 1.0, 16.0, 27.0, 32.0, 14.0, 128.0, 0.0, 0.0, 0.0, 1.657492243732006E9, 0.0, 2022-07-10 18:30:43.732
158.0, 23132.513240875393, 6764.733107654227, -31514.104487193166, -53482.71769079181, -1983.158526797119, 8278.214428211979, -26703.562045521983, -6017.737807957865, 0.034, 0.868, 0.464, 192.0, 0.0, 0.0, 0.0, 0.0, 0.0, 0.0, 0.0, 0.0, 0.0, 1.657492243732102E9, 0.0, 2022-07-10 18:30:43.732
159.0, 24184.609852386697, 7104.703140819448, -31447.764509649816, -53462.8693417155, -1912.5046625738935, 7562.06453586394, -26664.893527614302, -6257.169694563115, 0.034, 0.868, 0.464, 192.0, 0.0, 0.0, 0.0, 0.0, 0.0, 0.0, 0.0, 0.0, 0.0, 1.657492243739537E9, 0.0, 2022-07-10 18:30:43.739
160.0, 25237.04174006483, 7202.603781533692, -31391.10283745561, -53384.97351228876, -1858.74871715888, 6943.770580741237, -26599.31350938243, -6222.524490657389, 0.034, 0.868, 0.464, 192.0, 0.0, 0.0, 0.0, 0.0, 0.0, 0.0, 0.0, 0.0, 0.0, 1.657492243739556E9, 0.0, 2022-07-10 18:30:43.739
161.0, 24308.61733062474, 6865.964158292313, -31451.36314050712, -53397.1552130169, -1927.7932557813235, 7586.427937320225, -26633.958713288157, -5976.23061850436, 0.034, 0.868, 0.464, 192.0, 0.0, 0.0, 0.0, 0.0, 0.0, 0.0, 0.0, 0.0, 0.0, 1.657492243747503E9, 0.0, 2022-07-10 18:30:43.747
162.0, 23136.491851388437, 6724.56702286804, -31516.071440705236, -53479.78961226817, -1985.930143109577, 8287.69156786103, -26706.445420556716, -5981.37151972908, 0.034, 0.868, 0.464, 192.0, 0.0, 0.0, 0.0, 0.0, 0.0, 0.0, 0.0, 0.0, 0.0, 1.65749224374754E9, 0.0, 2022-07-10 18:30:43.747
163.0, 23909.750450819785, 7023.34279100213, -31476.888832675082, -53490.56315309562, -1942.5230553773708, 7740.766732784121, -26707.741821735126, -6239.981203076984, 0.034, 0.868, 0.464, 192.0, 0.0, 0.0, 0.0, 0.0, 0.0, 0.0, 0.0, 0.0, 0.0, 1.657492243754667E9, 0.0, 2022-07-10 18:30:43.754
164.0, 25163.616259529146, 7212.662066538581, -31396.40020089152, -53415.9083266149, -1862.2579410383632, 6950.833731989113, -26629.51071614155, -6285.735223976997, 0.034, 0.868, 0.464, 192.0, 0.0, 0.0, 0.0, 0.0, 0.0, 0.0, 0.0, 0.0, 0.0, 1.657492243761083E9, 0.0, 2022-07-10 18:30:43.761
165.0, 24561.840243558916, 6928.660801489449, -31421.07652677018, -53381.48664015373, -1887.6942262285027, 7372.857019049767, -26588.271747621508, -6012.060464866217, 0.034, 0.868, 0.464, 192.0, 0.0, 0.0, 0.0, 0.0, 0.0, 0.0, 0.0, 0.0, 0.0, 1.657492243761112E9, 0.0, 2022-07-10 18:30:43.761
166.0, 23215.37115757122, 6718.5544036095625, -31510.170580169033, -53463.83046672708, -1979.5375441953595, 8232.885090456617, -26679.064533598965, -5940.736048309333, 0.034, 0.868, 0.464, 192.0, 0.0, 0.0, 0.0, 0.0, 0.0, 0.0, 0.0, 0.0, 0.0, 1.657492243773618E9, 0.0, 2022-07-10 18:30:43.773
167.0, 23666.71993335723, 6985.590694617116, -31477.157053608546, -53488.551496094646, -1939.9526047650106, 7892.602132869021, -26680.360934777374, -6182.023129704372, 0.032, 0.862, 0.47000000000000003, 192.0, 1.0, 0.0, 26.0, 240.0, 14.0, 176.0, 0.0, 0.0, 0.0, 1.657492243773654E9, 0.0, 2022-07-10 18:30:43.773
168.0, 25049.62236280708, 7228.3529911462065, -31392.242776422834, -53408.487547455734, -1857.2511502803745, 7018.29129675523, -26587.78000924349, -6279.297921573869, 0.032, 0.862, 0.47000000000000003, 192.0, 0.0, 0.0, 0.0, 0.0, 0.0, 0.0, 0.0, 0.0, 0.0, 1.657492243779609E9, 0.0, 2022-07-10 18:30:43.779
169.0, 24815.53254312665, 7002.600372147605, -31409.945358031437, -53374.55759937258, -1884.3191128157514, 7215.6124968066815, -26575.955936426635, -6064.29649165827, 0.032, 0.862, 0.47000000000000003, 192.0, 0.0, 0.0, 0.0, 0.0, 0.0, 0.0, 0.0, 0.0, 0.0, 1.657492243779715E9, 0.0, 2022-07-10 18:30:43.779
170.0, 23368.637069301258, 6709.837223271993, -31498.100638163167, -53444.496207773234, -1966.7746981113792, 8144.595699858153, -26667.531033460025, -5924.776902768243, 0.032, 0.862, 0.47000000000000003, 192.0, 0.0, 0.0, 0.0, 0.0, 0.0, 0.0, 0.0, 0.0, 0.0, 1.657492243786015E9, 0.0, 2022-07-10 18:30:43.786
171.0, 23456.45707326616, 6901.436376742885, -31488.42233281402, -53490.384339139986, -1951.843732815234, 8036.435608438923, -26684.76422843507, -6132.223443057948, 0.032, 0.862, 0.47000000000000003, 192.0, 0.0, 0.0, 0.0, 0.0, 0.0, 0.0, 0.0, 0.0, 0.0, 1.657492243786064E9, 0.0, 2022-07-10 18:30:43.786
172.0, 24856.168014546398, 7212.147976416109, -31394.992040990837, -53420.043399339134, -1862.8614381386565, 7113.085044990188, -26610.89171301028, -6288.462136800545, 0.032, 0.862, 0.47000000000000003, 192.0, 0.0, 0.0, 0.0, 0.0, 0.0, 0.0, 0.0, 0.0, 0.0, 1.657492243792094E9, 0.0, 2022-07-10 18:30:43.792
173.0, 25008.69631870941, 7065.341718833652, -31393.136846201047, -53360.56540734356, -1869.0752230972319, 7083.558390564727, -26602.576864072904, -6110.296381747292, 0.032, 0.862, 0.47000000000000003, 192.0, 0.0, 0.0, 0.0, 0.0, 0.0, 0.0, 0.0, 0.0, 0.0, 1.657492243792114E9, 0.0, 2022-07-10 18:30:43.792
174.0, 23570.428618243768, 6726.176348468823, -31483.549652522765, -53424.08906508554, -1956.649357873125, 8023.493948399299, -26661.98780083511, -5922.139396922516, 0.032, 0.862, 0.47000000000000003, 192.0, 0.0, 0.0, 0.0, 0.0, 0.0, 0.0, 0.0, 0.0, 0.0, 1.657492243800072E9, 0.0, 2022-07-10 18:30:43.800
175.0, 23281.286451969918, 6847.769838305693, -31487.774132224815, -53474.2687313877, -1958.5045526629156, 8153.983432529382, -26684.8983389018, -6074.153610963061, 0.032, 0.862, 0.47000000000000003, 192.0, 0.0, 0.0, 0.0, 0.0, 0.0, 0.0, 0.0, 0.0, 0.0, 1.657492243800104E9, 0.0, 2022-07-10 18:30:43.800
176.0, 24646.262782366608, 7185.348234814195, -31404.111552728602, -53416.66828592638, -1878.7088249574692, 7279.158506293119, -26636.59621913388, -6265.775116178408, 0.032, 0.862, 0.47000000000000003, 192.0, 0.0, 0.0, 0.0, 0.0, 0.0, 0.0, 0.0, 0.0, 0.0, 1.657492243806789E9, 0.0, 2022-07-10 18:30:43.806
177.0, 25157.156605381562, 7125.445559673973, -31386.58778507564, -53355.80448577458, -1868.5387812303045, 7000.09697676861, -26605.281425151996, -6150.954204911495, 0.028, 0.86, 0.47600000000000003, 192.0, 0.0, 224.0, 26.0, 224.0, 14.0, 224.0, 0.0, 0.0, 0.0, 1.657492243806809E9, 0.0, 2022-07-10 18:30:43.806
178.0, 23823.33860675557, 6762.542636697607, -31475.480672774396, -53405.492413698725, -1957.9234073070775, 7887.7741560666755, -26659.730274645124, -5935.304574406693, 0.028, 0.86, 0.47600000000000003, 192.0, 0.0, 0.0, 0.0, 0.0, 0.0, 0.0, 0.0, 0.0, 0.0, 1.657492243813367E9, 0.0, 2022-07-10 18:30:43.813
179.0, 23164.476235446484, 6796.58434350304, -31500.559330053253, -53473.10644067603, -1963.8689713321892, 8239.165930648558, -26688.742838948114, -6046.951537960951, 0.028, 0.86, 0.47600000000000003, 192.0, 0.0, 0.0, 0.0, 0.0, 0.0, 0.0, 0.0, 0.0, 0.0, 1.657492243821852E9, 0.0, 2022-07-10 18:30:43.821
180.0, 24389.910625208693, 7145.360963983651, -31420.69654711444, -53428.93939363235, -1876.518354000849, 7446.148389118718, -26603.090954195377, -6249.368935748213, 0.028, 0.86, 0.47600000000000003, 192.0, 0.0, 0.0, 0.0, 0.0, 0.0, 0.0, 0.0, 0.0, 0.0, 1.657492243821901E9, 0.0, 2022-07-10 18:30:43.821
181.0, 25237.622885420667, 7172.808906174768, -31383.16796817398, -53363.53818935611, -1843.5271791848159, 6962.411935616963, -26575.21832885961, -6186.314664639791, 0.028, 0.86, 0.47600000000000003, 192.0, 0.0, 0.0, 0.0, 0.0, 0.0, 0.0, 0.0, 0.0, 0.0, 1.657492243829332E9, 0.0, 2022-07-10 18:30:43.829
182.0, 24084.988127349392, 6807.737863986238, -31457.152242321044, -53397.06580603908, -1922.4958923454158, 7699.863040430909, -26644.8887163268, -5958.215112473383, 0.028, 0.86, 0.47600000000000003, 192.0, 0.0, 0.0, 0.0, 0.0, 0.0, 0.0, 0.0, 0.0, 0.0, 1.657492243829355E9, 0.0, 2022-07-10 18:30:43.829
183.0, 23107.926321974555, 6749.578624913529, -31496.647774773573, -53460.27653935868, -1960.1809334970635, 8266.144486206113, -26675.37649576384, -6001.152813572027, 0.028, 0.86, 0.47600000000000003, 192.0, 0.0, 0.0, 0.0, 0.0, 0.0, 0.0, 0.0, 0.0, 0.0, 1.657492243836033E9, 0.0, 2022-07-10 18:30:43.836
184.0, 24105.887008415106, 7077.54577130625, -31442.914181103013, -53447.2678240857, -1908.7272177609466, 7606.276286396538, -26651.169556518744, -6244.898586857151, 0.028, 0.86, 0.47600000000000003, 192.0, 0.0, 0.0, 0.0, 0.0, 0.0, 0.0, 0.0, 0.0, 0.0, 1.657492243836129E9, 0.0, 2022-07-10 18:30:43.836
185.0, 25217.260446221884, 7197.28406635333, -31381.513939084285, -53372.7471080717, -1853.227836278419, 6937.221519615832, -26582.7732184855, -6227.151301759637, 0.028, 0.86, 0.47600000000000003, 192.0, 0.0, 0.0, 0.0, 0.0, 0.0, 0.0, 0.0, 0.0, 0.0, 1.65749224384398E9, 0.0, 2022-07-10 18:30:43.843
186.0, 24365.77074119696, 6862.790210579659, -31436.54393393325, -53372.076555738044, -1911.6105927956812, 7531.39794247126, -26593.233834890587, -5972.564932413689, 0.028, 0.86, 0.47600000000000003, 192.0, 0.0, 0.0, 0.0, 0.0, 0.0, 0.0, 0.0, 0.0, 0.0, 1.657492243844012E9, 0.0, 2022-07-10 18:30:43.844
187.0, 23141.073959001777, 6706.618572070429, -31505.543769066786, -53456.9684811793, -1974.4636982040047, 8280.293140446323, -26667.41927473775, -5954.839999060631, 0.032, 0.86, 0.47000000000000003, 192.0, 1.0, 0.0, 26.0, 224.0, 14.0, 176.0, 0.0, 0.0, 0.0, 1.657492243853932E9, 0.0, 2022-07-10 18:30:43.853
188.0, 23838.15781332944, 7019.185366533443, -31450.826698640194, -53455.35915557852, -1915.589203308726, 7777.468297179735, -26645.447509938185, -6188.818060018785, 0.032, 0.86, 0.47000000000000003, 192.0, 0.0, 0.0, 0.0, 0.0, 0.0, 0.0, 0.0, 0.0, 0.0, 1.657492243854022E9, 0.0, 2022-07-10 18:30:43.854
189.0, 25137.040035371785, 7222.09450269872, -31370.91921221247, -53371.96479701577, -1842.3201849842294, 6978.460488135874, -26572.11143638032, -6238.438932709567, 0.032, 0.86, 0.47000000000000003, 192.0, 0.0, 0.0, 0.0, 0.0, 0.0, 0.0, 0.0, 0.0, 0.0, 1.657492243859779E9, 0.0, 2022-07-10 18:30:43.859
190.0, 24631.10829962591, 6941.401295828974, -31412.292291199243, -53352.83170376202, -1889.6388279961143, 7357.5460740978815, -26583.30966035243, -6002.09158683915, 0.032, 0.86, 0.47000000000000003, 192.0, 0.0, 0.0, 0.0, 0.0, 0.0, 0.0, 0.0, 0.0, 0.0, 1.657492243859828E9, 0.0, 2022-07-10 18:30:43.859
191.0, 23244.830756763313, 6693.520449819619, -31507.018984200837, -53443.892710672946, -1983.4267477305827, 8238.093046914702, -26673.633059696327, -5929.046085959207, 0.032, 0.86, 0.47000000000000003, 192.0, 0.0, 0.0, 0.0, 0.0, 0.0, 0.0, 0.0, 0.0, 0.0, 1.65749224386648E9, 0.0, 2022-07-10 18:30:43.866
192.0, 23598.27889183508, 6942.921214451935, -31476.486501274885, -53472.614702298015, -1944.132380978153, 7943.832331160585, -26664.781768892026, -6161.191303872026, 0.032, 0.86, 0.47000000000000003, 192.0, 0.0, 0.0, 0.0, 0.0, 0.0, 0.0, 0.0, 0.0, 0.0, 1.6574922438665E9, 0.0, 2022-07-10 18:30:43.866
193.0, 24995.397030758504, 7213.422025850061, -31387.861834509593, -53399.077463040056, -1856.2229700354303, 7055.819875695691, -26591.713916267625, -6273.777040693408, 0.032, 0.86, 0.47000000000000003, 192.0, 0.0, 0.0, 0.0, 0.0, 0.0, 0.0, 0.0, 0.0, 0.0, 1.657492243873962E9, 0.0, 2022-07-10 18:30:43.873
194.0, 24859.811348892614, 7016.726674643359, -31396.579014847164, -53357.41381137536, -1867.5776562187264, 7192.523144784349, -26588.472913321606, -6068.476267871412, 0.032, 0.86, 0.47000000000000003, 192.0, 0.0, 0.0, 0.0, 0.0, 0.0, 0.0, 0.0, 0.0, 0.0, 1.657492243874006E9, 0.0, 2022-07-10 18:30:43.874
195.0, 23399.705994094133, 6724.3658571679425, -31487.550614780263, -53426.63716395345, -1956.9846340399545, 8129.620031073097, -26656.51162344356, -5921.848824244598, 0.032, 0.86, 0.47000000000000003, 192.0, 0.0, 0.0, 0.0, 0.0, 0.0, 0.0, 0.0, 0.0, 0.0, 1.657492243881611E9, 0.0, 2022-07-10 18:30:43.881
196.0, 23392.06169749042, 6886.2595422577315, -31490.635155515094, -53472.50294357574, -1954.2800729608623, 8087.799917197218, -26672.04608584, -6114.744378893898, 0.032, 0.86, 0.47000000000000003, 192.0, 0.0, 0.0, 0.0, 0.0, 0.0, 0.0, 0.0, 0.0, 0.0, 1.657492243888847E9, 0.0, 2022-07-10 18:30:43.888
197.0, 24807.798839545114, 7203.766072245368, -31401.250529438323, -53410.29803875662, -1867.1306213296202, 7182.42015629055, -26611.226989177107, -6287.188087366591, 0.036000000000000004, 0.858, 0.47400000000000003, 192.0, 1.0, 32.0, 26.0, 208.0, 14.0, 208.0, 0.0, 0.0, 0.0, 1.6574922438889E9, 0.0, 2022-07-10 18:30:43.888
198.0, 25053.15393843102, 7084.743033020858, -31389.91819499948, -53350.88710199441, -1865.297778284285, 7076.15996315002, -26579.30869809493, -6124.288573776314, 0.036000000000000004, 0.858, 0.47400000000000003, 192.0, 0.0, 0.0, 0.0, 0.0, 0.0, 0.0, 0.0, 0.0, 0.0, 1.657492243897669E9, 0.0, 2022-07-10 18:30:43.897
199.0, 23620.63063629039, 6733.641831116895, -31479.392228054076, -53415.26012602569, -1951.6649188595916, 7999.264657409747, -26628.773108574525, -5923.45814984538, 0.036000000000000004, 0.858, 0.47400000000000003, 192.0, 0.0, 0.0, 0.0, 0.0, 0.0, 0.0, 0.0, 0.0, 0.0, 1.657492243897695E9, 0.0, 2022-07-10 18:30:43.897
200.0, 23226.59173328778, 6817.147948401922, -31501.788675998294, -53484.05879545913, -1966.5735324112813, 8186.751089900862, -26668.246289282597, -6073.371299907124, 0.036000000000000004, 0.858, 0.47400000000000003, 192.0, 0.0, 0.0, 0.0, 0.0, 0.0, 0.0, 0.0, 0.0, 0.0, 1.65749224390417E9, 0.0, 2022-07-10 18:30:43.904
201.0, 24549.85970853087, 7161.65538569157, -31416.516770901297, -53436.09195185804, -1884.1179471156536, 7309.489823518971, -26617.060794479945, -6280.057880885349, 0.036000000000000004, 0.858, 0.47400000000000003, 192.0, 0.0, 0.0, 0.0, 0.0, 0.0, 0.0, 0.0, 0.0, 0.0, 1.65749224390419E9, 0.0, 2022-07-10 18:30:43.904
202.0, 25154.139119880096, 7142.74580988238, -31383.458540851898, -53363.40407888938, -1858.5699032032376, 6971.442040376907, -26573.16196836972, -6168.567379542277, 0.036000000000000004, 0.858, 0.47400000000000003, 192.0, 0.0, 0.0, 0.0, 0.0, 0.0, 0.0, 0.0, 0.0, 0.0, 1.657492243913858E9, 0.0, 2022-07-10 18:30:43.913
203.0, 23872.28892711269, 6773.718508925261, -31464.483614502387, -53399.79271886262, -1940.2878809318402, 7837.88506244243, -26624.191000961186, -5922.921707978453, 0.036000000000000004, 0.858, 0.47400000000000003, 192.0, 0.0, 0.0, 0.0, 0.0, 0.0, 0.0, 0.0, 0.0, 0.0, 1.657492243913911E9, 0.0, 2022-07-10 18:30:43.913
204.0, 23135.508374632405, 6763.9284448538365, -31511.355222625167, -53480.929551235386, -1980.67748316258, 8259.215445424968, -26688.362859292374, -6028.757217974332, 0.036000000000000004, 0.858, 0.47400000000000003, 192.0, 0.0, 0.0, 0.0, 0.0, 0.0, 0.0, 0.0, 0.0, 0.0, 1.657492243919714E9, 0.0, 2022-07-10 18:30:43.919
205.0, 24290.557121104852, 7116.16958572502, -31431.715957130906, -53447.62545199698, -1898.5571740337818, 7467.6060637958135, -26632.70701559866, -6263.092906843771, 0.036000000000000004, 0.858, 0.47400000000000003, 192.0, 0.0, 0.0, 0.0, 0.0, 0.0, 0.0, 0.0, 0.0, 0.0, 1.657492243919735E9, 0.0, 2022-07-10 18:30:43.919
206.0, 25206.576312372246, 7183.962426657967, -31378.764674516282, -53364.61107308997, -1852.2443595223856, 6927.140882866488, -26578.347573083352, -6207.727635827975, 0.036000000000000004, 0.858, 0.47400000000000003, 192.0, 0.0, 0.0, 0.0, 0.0, 0.0, 0.0, 0.0, 0.0, 0.0, 1.657492243926935E9, 0.0, 2022-07-10 18:30:43.926
207.0, 24154.703218305498, 6837.219814922788, -31442.13187004708, -53382.492468654214, -1910.8953369731114, 7663.161476035295, -26594.59729130236, -5949.140304224527, 0.044, 0.858, 0.47000000000000003, 192.0, 1.0, 96.0, 26.0, 208.0, 14.0, 176.0, 0.0, 0.0, 0.0, 1.657492243926975E9, 0.0, 2022-07-10 18:30:43.926
208.0, 23124.91364776059, 6752.685517392817, -31492.870329960628, -53459.605987025025, -1956.9846340399545, 8294.3076842198, -26649.895507084788, -5972.967263813885, 0.044, 0.858, 0.47000000000000003, 192.0, 0.0, 0.0, 0.0, 0.0, 0.0, 0.0, 0.0, 0.0, 0.0, 1.657492243935299E9, 0.0, 2022-07-10 18:30:43.935
209.0, 24035.009626747327, 7073.634216026571, -31438.443832211953, -53452.98987066626, -1908.0790171717426, 7652.075010785462, -26644.776957604525, -6227.486577926466, 0.044, 0.858, 0.47000000000000003, 192.0, 0.0, 0.0, 0.0, 0.0, 0.0, 0.0, 0.0, 0.0, 0.0, 1.657492243935355E9, 0.0, 2022-07-10 18:30:43.935
210.0, 25186.280928406828, 7208.8622699811785, -31385.44784610842, -53385.353491944494, -1859.8663043816455, 6931.9241561799245, -26599.35821287134, -6253.906339872639, 0.044, 0.858, 0.47000000000000003, 192.0, 0.0, 0.0, 0.0, 0.0, 0.0, 0.0, 0.0, 0.0, 0.0, 1.657492243944116E9, 0.0, 2022-07-10 18:30:43.944
211.0, 24420.800736045927, 6888.092385303067, -31431.939474575458, -53379.0503000081, -1909.0624939277761, 7469.461258585604, -26606.242550163573, -5995.319008269193, 0.044, 0.858, 0.47000000000000003, 192.0, 0.0, 0.0, 0.0, 0.0, 0.0, 0.0, 0.0, 0.0, 0.0, 1.657492243953431E9, 0.0, 2022-07-10 18:30:43.953
213.0, 23766.743989794733, 7002.667427380971, -31462.002570867848, -53463.69635626035, -1932.2636046723849, 7825.479844269735, -26653.538841431004, -6195.948266500029, 0.044, 0.858, 0.47000000000000003, 192.0, 0.0, 0.0, 0.0, 0.0, 0.0, 0.0, 0.0, 0.0, 0.0, 1.657492243953466E9, 0.0, 2022-07-10 18:30:43.953
214.0, 25090.34724120465, 7233.292726670829, -31379.41287510549, -53379.02794826364, -1847.684603653503, 6983.556685871683, -26585.008392931035, -6258.980185863994, 0.044, 0.858, 0.47000000000000003, 192.0, 0.0, 0.0, 0.0, 0.0, 0.0, 0.0, 0.0, 0.0, 0.0, 1.657492243959959E9, 0.0, 2022-07-10 18:30:43.959
215.0, 24685.132465974388, 6976.404127645985, -31411.93466328796, -53352.027040961635, -1883.5144500153604, 7301.554954237337, -26589.21052088863, -6022.968116160407, 0.044, 0.858, 0.47000000000000003, 192.0, 0.0, 0.0, 0.0, 0.0, 0.0, 0.0, 0.0, 0.0, 0.0, 1.65749224396004E9, 0.0, 2022-07-10 18:30:43.960
216.0, 23271.921071043143, 6713.480557618208, -31499.486446319395, -53429.475835499274, -1968.7863551123567, 8199.871563896128, -26658.076245555432, -5923.860481245575, 0.044, 0.868, 0.47800000000000004, 192.0, 1.0, 96.0, 27.0, 32.0, 14.0, 240.0, 0.0, 0.0, 0.0, 1.657492243968254E9, 0.0, 2022-07-10 18:30:43.968
217.0, 23527.13328923384, 6945.938699953402, -31478.252289086857, -53464.858646972025, -1939.9973082539211, 7972.621378019021, -26662.32307700194, -6152.02708864535, 0.044, 0.868, 0.47800000000000004, 192.0, 0.0, 0.0, 0.0, 0.0, 0.0, 0.0, 0.0, 0.0, 0.0, 1.657492243968297E9, 0.0, 2022-07-10 18:30:43.968
218.0, 24932.141593949986, 7231.124607458664, -31391.482817111355, -53392.59545714801, -1859.3745660036286, 7065.632291511571, -26612.277521166507, -6289.557372278854, 0.044, 0.868, 0.47800000000000004, 192.0, 0.0, 0.0, 0.0, 0.0, 0.0, 0.0, 0.0, 0.0, 0.0, 1.657492243975852E9, 0.0, 2022-07-10 18:30:43.975
219.0, 24913.16496290743, 7050.835436682158, -31392.801570034215, -53339.2418431332, -1870.975121375933, 7156.55918795576, -26591.69156452317, -6071.337291161692, 0.044, 0.868, 0.47800000000000004, 192.0, 0.0, 0.0, 0.0, 0.0, 0.0, 0.0, 0.0, 0.0, 0.0, 1.657492243975872E9, 0.0, 2022-07-10 18:30:43.975
220.0, 23459.429855278715, 6740.459113175763, -31477.760550708837, -53401.53615493014, -1953.2518927159183, 8106.284809861757, -26633.75754758806, -5898.781823966721, 0.044, 0.868, 0.47800000000000004, 192.0, 0.0, 0.0, 0.0, 0.0, 0.0, 0.0, 0.0, 0.0, 0.0, 1.657492243983343E9, 0.0, 2022-07-10 18:30:43.983
221.0, 23355.9636301951, 6893.143879549966, -31479.45928328744, -53450.307661331615, -1953.5871688827478, 8133.241013674858, -26650.744873374093, -6085.77651807982, 0.044, 0.868, 0.47800000000000004, 192.0, 0.0, 0.0, 0.0, 0.0, 0.0, 0.0, 0.0, 0.0, 0.0, 1.657492243983386E9, 0.0, 2022-07-10 18:30:43.983
222.0, 24744.31988529204, 7206.604743791193, -31396.06492472469, -53400.03858805163, -1861.7214991714359, 7218.965258474977, -26586.528311553993, -6278.180334351103, 0.044, 0.868, 0.47800000000000004, 192.0, 0.0, 0.0, 0.0, 0.0, 0.0, 0.0, 0.0, 0.0, 0.0, 1.657492243992072E9, 0.0, 2022-07-10 18:30:43.992
223.0, 25091.665994127514, 7103.876126274601, -31388.577090332165, -53347.824913004035, -1857.586426447204, 7055.328137317674, -26577.386448071775, -6127.395466255602, 0.044, 0.868, 0.47800000000000004, 192.0, 0.0, 0.0, 0.0, 0.0, 0.0, 0.0, 0.0, 0.0, 0.0, 1.65749224399214E9, 0.0, 2022-07-10 18:30:43.992
224.0, 23700.918102373853, 6763.324947753543, -31469.065722115723, -53400.84325085202, -1942.5007036329155, 7974.744793742275, -26651.08014954092, -5915.210356141371, 0.044, 0.868, 0.47800000000000004, 192.0, 0.0, 0.0, 0.0, 0.0, 0.0, 0.0, 0.0, 0.0, 0.0, 1.657492243998027E9, 0.0, 2022-07-10 18:30:43.998
225.0, 23218.321587839317, 6839.656155068416, -31490.299879348266, -53464.433963827374, -1957.588131140248, 8222.424474051533, -26674.41537075226, -6044.135218159583, 0.044, 0.868, 0.47800000000000004, 192.0, 0.0, 0.0, 0.0, 0.0, 0.0, 0.0, 0.0, 0.0, 0.0, 1.657492243998049E9, 0.0, 2022-07-10 18:30:43.998
226.0, 24508.75485047756, 7179.961464400467, -31413.722802844382, -53423.77614066317, -1885.8613831831674, 7365.5927021017915, -26624.906256783757, -6251.358241004735, 0.038, 0.862, 0.482, 192.0, 1.0, 48.0, 26.0, 240.0, 15.0, 16.0, 0.0, 0.0, 0.0, 1.657492244005384E9, 0.0, 2022-07-10 18:30:44.005
227.0, 25200.496637880402, 7167.355080527674, -31382.2068431624, -53360.23013117673, -1860.4027462485728, 6976.851162535091, -26582.41559057422, -6162.286539350336, 0.038, 0.862, 0.482, 192.0, 0.0, 0.0, 0.0, 0.0, 0.0, 0.0, 0.0, 0.0, 0.0, 1.65749224401303E9, 0.0, 2022-07-10 18:30:44.013
228.0, 23954.163367052482, 6820.366599603486, -31451.56430620722, -53395.65764613839, -1932.4647703724827, 7793.002759576173, -26619.96652125913, -5928.487292347824, 0.038, 0.862, 0.482, 192.0, 0.0, 0.0, 0.0, 0.0, 0.0, 0.0, 0.0, 0.0, 0.0, 1.657492244013053E9, 0.0, 2022-07-10 18:30:44.013
229.0, 23137.989418266945, 6799.0877388820345, -31492.870329960628, -53472.547647064646, -1969.7027766350243, 8267.284425173333, -26680.964431877666, -6004.4832234958685, 0.038, 0.862, 0.482, 192.0, 0.0, 0.0, 0.0, 0.0, 0.0, 0.0, 0.0, 0.0, 0.0, 1.657492244022722E9, 0.0, 2022-07-10 18:30:44.022
230.0, 24251.016885163415, 7123.702123606458, -31426.55270416173, -53450.06179214261, -1900.9935141794103, 7527.821663358411, -26639.904277313268, -6242.439894967067, 0.038, 0.862, 0.482, 192.0, 0.0, 0.0, 0.0, 0.0, 0.0, 0.0, 0.0, 0.0, 0.0, 1.657492244022773E9, 0.0, 2022-07-10 18:30:44.022
231.0, 25234.62775166366, 7202.626133278148, -31365.599497032108, -53372.143610971405, -1843.7730483738244, 6938.875548705524, -26575.665363748714, -6207.481766638967, 0.038, 0.862, 0.482, 192.0, 0.0, 0.0, 0.0, 0.0, 0.0, 0.0, 0.0, 0.0, 0.0, 1.657492244028625E9, 0.0, 2022-07-10 18:30:44.028
232.0, 24240.04217863586, 6865.472419914297, -31421.30004421473, -53381.12901224244, -1909.554232305793, 7609.964324231663, -26623.36398641634, -5953.253025204304, 0.038, 0.862, 0.482, 192.0, 0.0, 0.0, 0.0, 0.0, 0.0, 0.0, 0.0, 0.0, 0.0, 1.657492244028698E9, 0.0, 2022-07-10 18:30:44.028
233.0, 23143.130319491665, 6754.3618982269645, -31486.991821168882, -53457.97430967979, -1972.9661313254992, 8293.21244874149, -26692.274414572054, -5963.959510798396, 0.038, 0.862, 0.482, 192.0, 0.0, 0.0, 0.0, 0.0, 0.0, 0.0, 0.0, 0.0, 0.0, 1.657492244035632E9, 0.0, 2022-07-10 18:30:44.035
234.0, 23996.31875709519, 7067.152210134532, -31435.51575368831, -53456.186170123365, -1913.845767241212, 7729.590860556467, -26635.813908077947, -6197.55759210081, 0.038, 0.862, 0.482, 192.0, 0.0, 0.0, 0.0, 0.0, 0.0, 0.0, 0.0, 0.0, 0.0, 1.657492244035664E9, 0.0, 2022-07-10 18:30:44.035
235.0, 25202.41888790356, 7242.389886664139, -31354.378921315543, -53372.47888713824, -1831.233719734397, 6973.274883422242, -26566.29998282194, -6220.401074934134, 0.038, 0.862, 0.482, 192.0, 0.0, 0.0, 0.0, 0.0, 0.0, 0.0, 0.0, 0.0, 0.0, 1.657492244043736E9, 0.0, 2022-07-10 18:30:44.043
236.0, 24530.637208299308, 6929.912499178947, -31412.851084810627, -53370.13195397043, -1901.4852525574272, 7462.062831170897, -26622.64873059377, -5988.144098299039, 0.032, 0.86, 0.47800000000000004, 192.0, 1.0, 0.0, 26.0, 224.0, 14.0, 240.0, 0.0, 0.0, 0.0, 1.657492244043774E9, 0.0, 2022-07-10 18:30:44.043
237.0, 23211.481954035993, 6729.8867380484035, -31491.75274273786, -53459.136600391466, -1983.2255820304852, 8288.83150682825, -26694.263719828574, -5930.945984237907, 0.032, 0.86, 0.47800000000000004, 192.0, 0.0, 0.0, 0.0, 0.0, 0.0, 0.0, 0.0, 0.0, 0.0, 1.657492244050729E9, 0.0, 2022-07-10 18:30:44.050
238.0, 23729.41657655437, 7013.3962647195185, -31439.65082641254, -53465.752716750234, -1921.8476917562118, 7898.7488625942315, -26657.89743159979, -6150.730687466942, 0.032, 0.86, 0.47800000000000004, 192.0, 0.0, 0.0, 0.0, 0.0, 0.0, 0.0, 0.0, 0.0, 0.0, 1.657492244050766E9, 0.0, 2022-07-10 18:30:44.050
239.0, 25088.782619092777, 7239.707677329502, -31360.816223718673, -53390.06971002457, -1844.108324540654, 7045.58277673516, -26601.30281463895, -6247.0890578137705, 0.032, 0.86, 0.47800000000000004, 192.0, 0.0, 0.0, 0.0, 0.0, 0.0, 0.0, 0.0, 0.0, 0.0, 1.657492244058487E9, 0.0, 2022-07-10 18:30:44.058
240.0, 24775.545272296105, 6987.177668473443, -31392.55570084521, -53367.963834758266, -1879.424080780039, 7311.277963075396, -26582.236776618574, -6019.637706236566, 0.032, 0.86, 0.47800000000000004, 192.0, 0.0, 0.0, 0.0, 0.0, 0.0, 0.0, 0.0, 0.0, 0.0, 1.657492244058525E9, 0.0, 2022-07-10 18:30:44.058
241.0, 23342.798452710922, 6722.644772844884, -31474.56425125173, -53439.86939667099, -1958.7057183630131, 8232.460407311966, -26639.07726276842, -5879.4028615239695, 0.032, 0.86, 0.47800000000000004, 192.0, 0.0, 0.0, 0.0, 0.0, 0.0, 0.0, 0.0, 0.0, 0.0, 1.657492244066715E9, 0.0, 2022-07-10 18:30:44.066
242.0, 23508.447230869202, 6937.847368460581, -31466.27175405881, -53482.94120823636, -1944.8252850562676, 8068.465658243377, -26662.636001424315, -6099.858117086664, 0.032, 0.86, 0.47800000000000004, 192.0, 0.0, 0.0, 0.0, 0.0, 0.0, 0.0, 0.0, 0.0, 0.0, 1.657492244073704E9, 0.0, 2022-07-10 18:30:44.073
243.0, 24923.290303145684, 7234.231499937952, -31374.562546558685, -53414.030780080655, -1855.8876938686008, 7158.101458323176, -26595.334898869383, -6247.75961014743, 0.032, 0.86, 0.47800000000000004, 192.0, 0.0, 0.0, 0.0, 0.0, 0.0, 0.0, 0.0, 0.0, 0.0, 1.657492244073735E9, 0.0, 2022-07-10 18:30:44.073
244.0, 24995.75465866979, 7070.124992147088, -31367.611154033086, -53360.90068351039, -1853.5407607007935, 7171.445449762995, -26565.517671766007, -6059.155590433549, 0.032, 0.86, 0.47800000000000004, 192.0, 0.0, 0.0, 0.0, 0.0, 0.0, 0.0, 0.0, 0.0, 0.0, 1.657492244079845E9, 0.0, 2022-07-10 18:30:44.079
245.0, 23548.18863251074, 6747.075229534535, -31451.36314050712, -53417.36119000449, -1934.81170354029, 8107.93883895145, -26637.17736448972, -5881.123945847028, 0.032, 0.86, 0.47800000000000004, 192.0, 0.0, 0.0, 0.0, 0.0, 0.0, 0.0, 0.0, 0.0, 0.0, 1.657492244079873E9, 0.0, 2022-07-10 18:30:44.079
246.0, 23347.71583649109, 6871.55209440614, -31473.98310589589, -53483.947036736856, -1957.0069857844098, 8192.450784736966, -26684.630117968336, -6059.53557008929, 0.026000000000000002, 0.854, 0.47600000000000003, 192.0, 0.0, 208.0, 26.0, 176.0, 14.0, 224.0, 0.0, 0.0, 0.0, 1.657492244088014E9, 0.0, 2022-07-10 18:30:44.088
247.0, 24721.722271647726, 7198.75928148738, -31393.717991556885, -53438.48358851476, -1879.267618568852, 7290.580247709781, -26625.710919584148, -6253.504008472444, 0.026000000000000002, 0.854, 0.47600000000000003, 192.0, 0.0, 0.0, 0.0, 0.0, 0.0, 0.0, 0.0, 0.0, 0.0, 1.657492244088049E9, 0.0, 2022-07-10 18:30:44.088
248.0, 25154.943782680486, 7125.870242818623, -31367.857023222095, -53374.93757902832, -1859.039289836799, 7063.531227532772, -26601.235759405587, -6117.5383469508115, 0.026000000000000002, 0.854, 0.47600000000000003, 192.0, 0.0, 0.0, 0.0, 0.0, 0.0, 0.0, 0.0, 0.0, 0.0, 1.657492244095809E9, 0.0, 2022-07-10 18:30:44.095
249.0, 23788.581644127567, 6772.936197869325, -31447.384529994077, -53415.72951265926, -1935.5940145962256, 7959.009165645739, -26650.700169885182, -5904.369760080548, 0.026000000000000002, 0.854, 0.47600000000000003, 192.0, 0.0, 0.0, 0.0, 0.0, 0.0, 0.0, 0.0, 0.0, 0.0, 1.657492244095828E9, 0.0, 2022-07-10 18:30:44.095
250.0, 23220.40030007366, 6812.677599510861, -31477.335867564187, -53481.33188263558, -1956.7164131064908, 8277.052137500303, -26666.502853215083, -6015.480281767879, 0.026000000000000002, 0.854, 0.47600000000000003, 192.0, 0.0, 0.0, 0.0, 0.0, 0.0, 0.0, 0.0, 0.0, 0.0, 1.657492244102922E9, 0.0, 2022-07-10 18:30:44.102
251.0, 24466.867681368316, 7158.995528101388, -31400.244700937834, -53441.43401878286, -1872.9867783769107, 7455.513770045492, -26594.351422113352, -6224.156168002626, 0.026000000000000002, 0.854, 0.47600000000000003, 192.0, 0.0, 0.0, 0.0, 0.0, 0.0, 0.0, 0.0, 0.0, 0.0, 1.657492244102953E9, 0.0, 2022-07-10 18:30:44.102
252.0, 25227.631655649147, 7170.529028240327, -31363.654895264495, -53373.7976400611, -1844.1530280295644, 6999.649941879505, -26576.82765446039, -6161.280710849847, 0.026000000000000002, 0.854, 0.47600000000000003, 192.0, 0.0, 0.0, 0.0, 0.0, 0.0, 0.0, 0.0, 0.0, 0.0, 1.657492244110446E9, 0.0, 2022-07-10 18:30:44.110
253.0, 24047.37014143111, 6813.2363931222435, -31440.768413635305, -53400.23975375173, -1920.8642150001783, 7789.3370734855025, -26636.976198789624, -5919.948925965897, 0.026000000000000002, 0.854, 0.47600000000000003, 192.0, 0.0, 0.0, 0.0, 0.0, 0.0, 0.0, 0.0, 0.0, 0.0, 1.657492244110466E9, 0.0, 2022-07-10 18:30:44.110
254.0, 23149.232345727964, 6774.232599047733, -31479.88396643209, -53474.872228488, -1953.1401339936417, 8321.800329899828, -26664.692361914204, -5968.720432367377, 0.026000000000000002, 0.854, 0.47600000000000003, 192.0, 0.0, 0.0, 0.0, 0.0, 0.0, 0.0, 0.0, 0.0, 0.0, 1.657492244118691E9, 0.0, 2022-07-10 18:30:44.118
255.0, 24190.242491989433, 7117.22011771442, -31412.761677832805, -53445.18911185135, -1891.650484997092, 7616.625144079345, -26644.553440159973, -6210.141624229148, 0.026000000000000002, 0.854, 0.47600000000000003, 192.0, 0.0, 0.0, 0.0, 0.0, 0.0, 0.0, 0.0, 0.0, 0.0, 1.657492244118731E9, 0.0, 2022-07-10 18:30:44.118
0.0, 25243.43433897905, 7202.916705956067, -31370.58393604564, -53386.4487274228, -1853.9877955898996, 6988.2729039517535, -26597.54772157046, -6201.46914738049, 0.03, 0.862, 0.47600000000000003, 192.0, 0.0, 240.0, 26.0, 240.0, 14.0, 224.0, 0.0, 0.0, 0.0, 1.657492244125629E9, 0.0, 2022-07-10 18:30:44.125
1.0, 24328.935066334616, 6874.748393863249, -31419.802477336227, -53388.48273616824, -1903.005171180388, 7613.026513222041, -26603.202712917653, -5950.07907749165, 0.03, 0.862, 0.47600000000000003, 192.0, 0.0, 0.0, 0.0, 0.0, 0.0, 0.0, 0.0, 0.0, 0.0, 1.657492244125703E9, 0.0, 2022-07-10 18:30:44.125
2.0, 23161.01171505591, 6737.575738141029, -31491.75274273786, -53464.7692399942, -1979.1799162840746, 8325.421312501587, -26694.24136808412, -5948.536807124235, 0.03, 0.862, 0.47600000000000003, 192.0, 0.0, 0.0, 0.0, 0.0, 0.0, 0.0, 0.0, 0.0, 0.0, 1.657492244133086E9, 0.0, 2022-07-10 18:30:44.133
3.0, 23918.713500346363, 7051.126009360077, -31450.871402129105, -53479.320225634605, -1941.8301512992564, 7778.0047390466625, -26719.141211407332, -6206.475938138478, 0.03, 0.862, 0.47600000000000003, 192.0, 0.0, 0.0, 0.0, 0.0, 0.0, 0.0, 0.0, 0.0, 0.0, 1.657492244141756E9, 0.0, 2022-07-10 18:30:44.141
4.0, 25178.815445758755, 7234.030334237855, -31366.895898210514, -53390.18146874684, -1855.9547491019666, 6998.062968023178, -26627.208486462652, -6243.423371723101, 0.03, 0.862, 0.47600000000000003, 192.0, 0.0, 0.0, 0.0, 0.0, 0.0, 0.0, 0.0, 0.0, 0.0, 1.657492244141784E9, 0.0, 2022-07-10 18:30:44.141
5.0, 24601.78281090055, 6946.944528453891, -31402.189302705447, -53368.723794069745, -1891.2034501079859, 7437.006525636498, -26611.1822856882, -5981.572685429178, 0.03, 0.862, 0.47600000000000003, 192.0, 0.0, 0.0, 0.0, 0.0, 0.0, 0.0, 0.0, 0.0, 0.0, 1.657492244148315E9, 0.0, 2022-07-10 18:30:44.148
6.0, 23249.323457398827, 6732.077209005023, -31483.303783333755, -53447.647803741434, -1972.5637999253036, 8288.49623066142, -26691.08977211592, -5911.947001450897, 0.03, 0.862, 0.47600000000000003, 192.0, 0.0, 0.0, 0.0, 0.0, 0.0, 0.0, 0.0, 0.0, 0.0, 1.657492244148348E9, 0.0, 2022-07-10 18:30:44.148
7.0, 23685.048363810583, 6992.989122031823, -31449.731463161883, -53469.172533651894, -1932.6212325836698, 7956.014031888728, -26649.068492539944, -6132.446960502501, 0.03, 0.862, 0.47600000000000003, 192.0, 0.0, 0.0, 0.0, 0.0, 0.0, 0.0, 0.0, 0.0, 0.0, 1.65749224415763E9, 0.0, 2022-07-10 18:30:44.157
8.0, 25070.34242991715, 7243.976860520466, -31357.374055072556, -53387.00752103419, -1843.102496040165, 7091.940294735467, -26564.042456631956, -6226.32428721479, 0.03, 0.862, 0.47600000000000003, 192.0, 0.0, 0.0, 0.0, 0.0, 0.0, 0.0, 0.0, 0.0, 0.0, 1.657492244157652E9, 0.0, 2022-07-10 18:30:44.157
9.0, 24855.54216570165, 7026.852014881613, -31372.126206413057, -53353.68107005132, -1861.7885544048017, 7285.305236018328, -26560.555584496928, -6016.6202207351, 0.03, 0.862, 0.47600000000000003, 192.0, 0.0, 0.0, 0.0, 0.0, 0.0, 0.0, 0.0, 0.0, 0.0, 1.657492244163735E9, 0.0, 2022-07-10 18:30:44.163
10.0, 23412.580598900393, 6739.162711997356, -31459.65563770004, -53423.64203019644, -1945.3393751787396, 8205.034816865304, -26640.57482964693, -5886.4436610273915, 0.04, 0.862, 0.47200000000000003, 192.0, 1.0, 64.0, 26.0, 240.0, 14.0, 192.0, 0.0, 0.0, 0.0, 1.657492244163756E9, 0.0, 2022-07-10 18:30:44.163
11.0, 23483.480332312625, 6923.318734564631, -31460.057969100235, -53471.9217982199, -1945.2723199453737, 8098.305237091213, -26675.488254486118, -6093.957256550462, 0.04, 0.862, 0.47200000000000003, 192.0, 0.0, 0.0, 0.0, 0.0, 0.0, 0.0, 0.0, 0.0, 0.0, 1.657492244170705E9, 0.0, 2022-07-10 18:30:44.170
12.0, 24891.573177763603, 7222.385075376639, -31381.49158733983, -53414.38840799194, -1863.330824772218, 7191.092633139209, -26603.426230362205, -6248.139589803171, 0.04, 0.862, 0.47200000000000003, 192.0, 0.0, 0.0, 0.0, 0.0, 0.0, 0.0, 0.0, 0.0, 0.0, 1.657492244170731E9, 0.0, 2022-07-10 18:30:44.170
13.0, 25045.934324971953, 7087.5370010777715, -31370.58393604564, -53361.37007014395, -1856.200618290975, 7134.229795244908, -26580.8733202068, -6081.7308523334095, 0.04, 0.862, 0.47200000000000003, 192.0, 0.0, 0.0, 0.0, 0.0, 0.0, 0.0, 0.0, 0.0, 0.0, 1.657492244178723E9, 0.0, 2022-07-10 18:30:44.178
14.0, 23606.996072172653, 6756.619424416951, -31457.152242321044, -53417.00356209321, -1941.6736890880693, 8065.604634953098, -26658.746797889093, -5896.032559398718, 0.04, 0.862, 0.47200000000000003, 192.0, 0.0, 0.0, 0.0, 0.0, 0.0, 0.0, 0.0, 0.0, 0.0, 1.657492244178745E9, 0.0, 2022-07-10 18:30:44.178
15.0, 23309.784926150434, 6863.639576868961, -31477.760550708837, -53482.2259524138, -1964.2489509879294, 8211.762691946351, -26704.992557167123, -6060.362584634136, 0.04, 0.862, 0.47200000000000003, 192.0, 0.0, 0.0, 0.0, 0.0, 0.0, 0.0, 0.0, 0.0, 0.0, 1.65749224418558E9, 0.0, 2022-07-10 18:30:44.185
16.0, 24670.26855591161, 7200.502717554894, -31392.220424678377, -53424.312582530096, -1880.2734470693408, 7342.570405312826, -26642.877059325823, -6250.933557860084, 0.04, 0.862, 0.47200000000000003, 192.0, 0.0, 0.0, 0.0, 0.0, 0.0, 0.0, 0.0, 0.0, 0.0, 1.657492244185646E9, 0.0, 2022-07-10 18:30:44.185
17.0, 25198.261463434872, 7150.881844864112, -31363.63254352004, -53365.572198101545, -1849.3386327431958, 7053.383535550062, -26595.089029680377, -6132.134036080127, 0.04, 0.862, 0.47200000000000003, 192.0, 0.0, 0.0, 0.0, 0.0, 0.0, 0.0, 0.0, 0.0, 0.0, 1.657492244192579E9, 0.0, 2022-07-10 18:30:44.192
18.0, 23865.33753458709, 6804.742730229227, -31436.70039614444, -53402.29611424162, -1926.4074476250944, 7911.7799296116755, -26636.79738483398, -5909.622420027545, 0.04, 0.862, 0.47200000000000003, 192.0, 0.0, 0.0, 0.0, 0.0, 0.0, 0.0, 0.0, 0.0, 0.0, 1.657492244200588E9, 0.0, 2022-07-10 18:30:44.200
19.0, 23201.915407409124, 6827.049771195623, -31482.74498972237, -53475.9227604774, -1974.3295877372727, 8283.645902114618, -26701.215112354173, -6015.86026142362, 0.04, 0.862, 0.47200000000000003, 192.0, 0.0, 0.0, 0.0, 0.0, 0.0, 0.0, 0.0, 0.0, 0.0, 1.657492244200629E9, 0.0, 2022-07-10 18:30:44.200
20.0, 24405.44508760513, 7176.765164943357, -31403.329241672665, -53440.04821062663, -1892.3433890752065, 7481.57590408038, -26654.164690275753, -6239.534168187877, 0.034, 0.858, 0.47000000000000003, 192.0, 1.0, 16.0, 26.0, 208.0, 14.0, 176.0, 0.0, 0.0, 0.0, 1.657492244208477E9, 0.0, 2022-07-10 18:30:44.208
21.0, 25246.34006575824, 7218.04883695231, -31343.717139210363, -53352.40702061737, -1840.9567285724556, 6967.798706030692, -26598.59825355986, -6172.903617966606, 0.034, 0.858, 0.47000000000000003, 192.0, 0.0, 0.0, 0.0, 0.0, 0.0, 0.0, 0.0, 0.0, 0.0, 1.65749224420852E9, 0.0, 2022-07-10 18:30:44.208
22.0, 24125.601247024686, 6846.2275679382765, -31422.283520970766, -53379.56439013057, -1922.4064853675945, 7721.9465639527525, -26648.643809395293, -5927.8837952475305, 0.034, 0.858, 0.47000000000000003, 192.0, 0.0, 0.0, 0.0, 0.0, 0.0, 0.0, 0.0, 0.0, 0.0, 1.657492244214917E9, 0.0, 2022-07-10 18:30:44.214
23.0, 23156.228441742474, 6767.840000133515, -31480.912146677038, -53463.56224579361, -1975.5812854267701, 8309.395111727132, -26701.39392630982, -5967.915769566986, 0.034, 0.858, 0.47000000000000003, 192.0, 0.0, 0.0, 0.0, 0.0, 0.0, 0.0, 0.0, 0.0, 0.0, 1.65749224421497E9, 0.0, 2022-07-10 18:30:44.214
24.0, 24140.979247209936, 7092.186163924475, -31424.116364016103, -53459.76244923621, -1915.2986306308069, 7653.438467197236, -26663.664181669257, -6211.482728896467, 0.034, 0.858, 0.47000000000000003, 192.0, 0.0, 0.0, 0.0, 0.0, 0.0, 0.0, 0.0, 0.0, 0.0, 1.657492244222989E9, 0.0, 2022-07-10 18:30:44.222
25.0, 25249.066978581784, 7220.082845697742, -31361.93381094144, -53388.013349534674, -1853.8983886120784, 6970.033880476222, -26595.35725061384, -6217.338885943757, 0.034, 0.858, 0.47000000000000003, 192.0, 0.0, 0.0, 0.0, 0.0, 0.0, 0.0, 0.0, 0.0, 0.0, 1.657492244223014E9, 0.0, 2022-07-10 18:30:44.223
26.0, 24414.184619687156, 6897.927152863402, -31412.73932608835, -53386.538134400624, -1909.9565637059884, 7539.0422390749745, -26607.941282742177, -5967.602845144612, 0.034, 0.858, 0.47000000000000003, 192.0, 0.0, 0.0, 0.0, 0.0, 0.0, 0.0, 0.0, 0.0, 0.0, 1.657492244231037E9, 0.0, 2022-07-10 18:30:44.231
27.0, 23193.511151493927, 6733.597127627984, -31487.14828338007, -53468.837257485065, -1980.744538395946, 8283.958826536993, -26715.296711361018, -5960.897321808019, 0.034, 0.858, 0.47000000000000003, 192.0, 0.0, 0.0, 0.0, 0.0, 0.0, 0.0, 0.0, 0.0, 0.0, 1.657492244231057E9, 0.0, 2022-07-10 18:30:44.231
28.0, 23880.06733418314, 7038.094942342633, -31439.092032801156, -53470.20071389684, -1928.8214360262677, 7799.708282912766, -26687.13351334733, -6200.239801435448, 0.034, 0.858, 0.47000000000000003, 192.0, 0.0, 0.0, 0.0, 0.0, 0.0, 0.0, 0.0, 0.0, 0.0, 1.657492244239676E9, 0.0, 2022-07-10 18:30:44.239
29.0, 25171.998163699885, 7238.47833138446, -31362.626715019553, -53394.316541471075, -1847.3046239977627, 6995.33605519963, -26591.937433712177, -6257.795543407863, 0.034, 0.858, 0.47000000000000003, 192.0, 0.0, 0.0, 0.0, 0.0, 0.0, 0.0, 0.0, 0.0, 0.0, 1.657492244239724E9, 0.0, 2022-07-10 18:30:44.239
30.0, 24675.431808880785, 6964.244778662298, -31400.334107915656, -53370.847209793, -1886.5095837723713, 7363.31282416735, -26603.247416406564, -6013.021589877795, 0.036000000000000004, 0.868, 0.47000000000000003, 192.0, 1.0, 32.0, 27.0, 32.0, 14.0, 176.0, 0.0, 0.0, 0.0, 1.657492244245824E9, 0.0, 2022-07-10 18:30:44.245
31.0, 23294.71985038756, 6722.0189240001355, -31487.75178048036, -53450.97821366528, -1975.804802871323, 8245.089142929213, -26681.99261212261, -5910.740007250311, 0.036000000000000004, 0.868, 0.47000000000000003, 192.0, 0.0, 0.0, 0.0, 0.0, 0.0, 0.0, 0.0, 0.0, 0.0, 1.657492244245843E9, 0.0, 2022-07-10 18:30:44.245
32.0, 23635.4274911198, 6975.174781700944, -31454.85001264215, -53474.96163546582, -1930.6766308160582, 7968.463953550334, -26656.288105999007, -6129.004791856384, 0.036000000000000004, 0.868, 0.47000000000000003, 192.0, 0.0, 0.0, 0.0, 0.0, 0.0, 0.0, 0.0, 0.0, 0.0, 1.657492244252705E9, 0.0, 2022-07-10 18:30:44.252
33.0, 25026.19773461792, 7249.698907101025, -31371.38859884603, -53399.79271886262, -1849.6962606544807, 7082.060823686222, -26588.78583774398, -6251.917034616117, 0.036000000000000004, 0.868, 0.47000000000000003, 192.0, 0.0, 0.0, 0.0, 0.0, 0.0, 0.0, 0.0, 0.0, 0.0, 1.657492244260543E9, 0.0, 2022-07-10 18:30:44.260
34.0, 24907.331157604596, 7053.227073338875, -31381.670401295472, -53358.46434336476, -1869.4552027529721, 7205.062473423776, -26593.814980246425, -6059.826142767209, 0.036000000000000004, 0.868, 0.47000000000000003, 192.0, 0.0, 0.0, 0.0, 0.0, 0.0, 0.0, 0.0, 0.0, 0.0, 1.657492244260563E9, 0.0, 2022-07-10 18:30:44.260
35.0, 23449.192756318185, 6739.788560842105, -31473.871347173616, -53427.464178498296, -1965.746517866435, 8123.920336236994, -26689.882777915333, -5919.390132354514, 0.036000000000000004, 0.868, 0.47000000000000003, 192.0, 0.0, 0.0, 0.0, 0.0, 0.0, 0.0, 0.0, 0.0, 0.0, 1.65749224426773E9, 0.0, 2022-07-10 18:30:44.267
36.0, 23422.77299437201, 6914.668609460427, -31475.81594894123, -53476.07922268858, -1960.583264897259, 8090.035091642749, -26702.109182132386, -6114.856137616174, 0.036000000000000004, 0.868, 0.47000000000000003, 192.0, 0.0, 0.0, 0.0, 0.0, 0.0, 0.0, 0.0, 0.0, 0.0, 1.65749224426778E9, 0.0, 2022-07-10 18:30:44.267
37.0, 24829.569438644583, 7221.1333776871425, -31398.903596270517, -53422.211518551296, -1883.2238773374413, 7202.268505366863, -26624.191000961186, -6269.23963656898, 0.036000000000000004, 0.868, 0.47000000000000003, 192.0, 0.0, 0.0, 0.0, 0.0, 0.0, 0.0, 0.0, 0.0, 0.0, 1.657492244275523E9, 0.0, 2022-07-10 18:30:44.275
38.0, 25095.68930812947, 7100.456309372939, -31380.753979772806, -53367.8967795249, -1874.104365599676, 7089.459251100929, -26597.77123901501, -6106.474233445434, 0.036000000000000004, 0.868, 0.47000000000000003, 192.0, 0.0, 0.0, 0.0, 0.0, 0.0, 0.0, 0.0, 0.0, 0.0, 1.657492244275567E9, 0.0, 2022-07-10 18:30:44.275
39.0, 23674.67715438332, 6767.057689077579, -31457.375759765597, -53411.21446027928, -1959.3092154633066, 7997.409462619957, -26663.55242294698, -5910.672952016945, 0.036000000000000004, 0.868, 0.47000000000000003, 192.0, 0.0, 0.0, 0.0, 0.0, 0.0, 0.0, 0.0, 0.0, 0.0, 1.657492244283313E9, 0.0, 2022-07-10 18:30:44.283
40.0, 23273.820969321845, 6854.251844197732, -31480.50981527684, -53475.98981571077, -1975.7600993824126, 8198.686921439996, -26693.079077372444, -6056.67454679901, 0.034, 0.866, 0.468, 192.0, 1.0, 16.0, 27.0, 16.0, 14.0, 160.0, 0.0, 0.0, 0.0, 1.657492244283335E9, 0.0, 2022-07-10 18:30:44.283
41.0, 24595.747839897616, 7194.981836674433, -31398.568320103685, -53433.09681810103, -1893.1480518755975, 7339.329402366806, -26636.350349944874, -6263.606996966243, 0.034, 0.866, 0.468, 192.0, 0.0, 0.0, 0.0, 0.0, 0.0, 0.0, 0.0, 0.0, 0.0, 1.657492244291341E9, 0.0, 2022-07-10 18:30:44.291
42.0, 25209.99612927391, 7169.053813106277, -31364.01252317578, -53364.76753530116, -1863.2861212833075, 6994.821965077158, -26600.811076260936, -6160.5654550272775, 0.034, 0.866, 0.468, 192.0, 0.0, 0.0, 0.0, 0.0, 0.0, 0.0, 0.0, 0.0, 0.0, 1.657492244291362E9, 0.0, 2022-07-10 18:30:44.291
43.0, 23934.046797042705, 6797.634875492439, -31449.731463161883, -53402.497279941716, -1949.7203170919797, 7843.137722389427, -26680.47269349965, -5940.3337169091365, 0.034, 0.866, 0.468, 192.0, 0.0, 0.0, 0.0, 0.0, 0.0, 0.0, 0.0, 0.0, 0.0, 1.65749224429782E9, 0.0, 2022-07-10 18:30:44.297
44.0, 23195.276939305895, 6796.4502330363075, -31485.762475223837, -53476.1239261775, -1980.2751517623844, 8272.06769848677, -26717.82245848447, -6029.584232519178, 0.034, 0.866, 0.468, 192.0, 0.0, 0.0, 0.0, 0.0, 0.0, 0.0, 0.0, 0.0, 0.0, 1.65749224429784E9, 0.0, 2022-07-10 18:30:44.297
45.0, 24343.798976397393, 7150.032478574811, -31411.957015032414, -53441.67988797187, -1902.8934124581115, 7506.811023570422, -26672.291955029006, -6257.236749796481, 0.034, 0.866, 0.468, 192.0, 0.0, 0.0, 0.0, 0.0, 0.0, 0.0, 0.0, 0.0, 0.0, 1.657492244306577E9, 0.0, 2022-07-10 18:30:44.306
46.0, 25264.7131997005, 7213.533784572338, -31367.2535261218, -53372.38948016042, -1862.816734649746, 6963.66363330646, -26623.185172460697, -6216.847147565741, 0.034, 0.866, 0.468, 192.0, 0.0, 0.0, 0.0, 0.0, 0.0, 0.0, 0.0, 0.0, 0.0, 1.65749224430661E9, 0.0, 2022-07-10 18:30:44.306
47.0, 24205.151105541125, 6863.863094313514, -31436.186306021966, -53392.03666353663, -1932.8894535171335, 7667.1847900372495, -26663.75358864708, -5964.6077113876, 0.034, 0.866, 0.468, 192.0, 0.0, 0.0, 0.0, 0.0, 0.0, 0.0, 0.0, 0.0, 0.0, 1.657492244312971E9, 0.0, 2022-07-10 18:30:44.312
48.0, 23158.731837121468, 6771.103354823989, -31492.579757282707, -53465.99858593924, -1981.6162564297028, 8294.419442942077, -26713.1062404044, -5982.980845329863, 0.034, 0.866, 0.468, 192.0, 0.0, 0.0, 0.0, 0.0, 0.0, 0.0, 0.0, 0.0, 0.0, 1.657492244321155E9, 0.0, 2022-07-10 18:30:44.321
49.0, 24068.649002152564, 7094.220172669909, -31429.436079196465, -53454.88976894495, -1910.6271160396477, 7681.199333810728, -26659.998495578588, -6219.75287434493, 0.034, 0.866, 0.468, 192.0, 0.0, 0.0, 0.0, 0.0, 0.0, 0.0, 0.0, 0.0, 0.0, 1.657492244321186E9, 0.0, 2022-07-10 18:30:44.321
50.0, 25238.584010432245, 7237.248985439419, -31360.43624406293, -53375.6975383398, -1848.846894365179, 6977.789935802214, -26576.20180561564, -6226.145473259148, 0.034, 0.868, 0.468, 192.0, 1.0, 16.0, 27.0, 32.0, 14.0, 160.0, 0.0, 0.0, 0.0, 1.65749224432776E9, 0.0, 2022-07-10 18:30:44.327
51.0, 24488.66063221224, 6923.676362475916, -31410.772372576284, -53374.110564483475, -1900.7029415014913, 7496.439814143159, -26610.847009521367, -5987.160621543005, 0.034, 0.868, 0.468, 192.0, 0.0, 0.0, 0.0, 0.0, 0.0, 0.0, 0.0, 0.0, 0.0, 1.657492244327784E9, 0.0, 2022-07-10 18:30:44.327
52.0, 23206.721032467012, 6732.300726449576, -31492.64681251607, -53461.841161470555, -1982.1750500410856, 8269.229026940946, -26698.935234419732, -5958.304519451203, 0.034, 0.868, 0.468, 192.0, 0.0, 0.0, 0.0, 0.0, 0.0, 0.0, 0.0, 0.0, 0.0, 1.657492244335822E9, 0.0, 2022-07-10 18:30:44.335
53.0, 23804.22786524628, 7020.660581667493, -31452.1230998186, -53471.63122554198, -1941.1819507100524, 7841.729562488743, -26688.51932150356, -6195.65769382211, 0.034, 0.868, 0.468, 192.0, 0.0, 0.0, 0.0, 0.0, 0.0, 0.0, 0.0, 0.0, 0.0, 1.657492244335865E9, 0.0, 2022-07-10 18:30:44.335
54.0, 25144.282000575306, 7242.568700619781, -31374.853119236606, -53390.49439316922, -1865.007205606366, 7019.811215378191, -26626.113250984345, -6269.9772441360055, 0.034, 0.868, 0.468, 192.0, 0.0, 0.0, 0.0, 0.0, 0.0, 0.0, 0.0, 0.0, 0.0, 1.657492244344263E9, 0.0, 2022-07-10 18:30:44.344
55.0, 24751.315981306554, 6983.534334127228, -31409.61008186461, -53371.09307898201, -1902.9828194359327, 7327.2594603609405, -26621.88877128229, -6043.531721059289, 0.034, 0.868, 0.468, 192.0, 0.0, 0.0, 0.0, 0.0, 0.0, 0.0, 0.0, 0.0, 0.0, 1.657492244344378E9, 0.0, 2022-07-10 18:30:44.344
56.0, 23323.195972823618, 6732.479540405219, -31486.835358957695, -53445.278518829175, -1977.5482389388371, 8202.19614531948, -26690.195702337707, -5936.779789540743, 0.034, 0.868, 0.468, 192.0, 0.0, 0.0, 0.0, 0.0, 0.0, 0.0, 0.0, 0.0, 0.0, 1.657492244350283E9, 0.0, 2022-07-10 18:30:44.350
57.0, 23565.645344930334, 6953.426534345929, -31465.84707091416, -53475.36396686602, -1951.8213810707787, 7981.182096145403, -26701.125705376355, -6155.938643925028, 0.034, 0.868, 0.468, 192.0, 0.0, 0.0, 0.0, 0.0, 0.0, 0.0, 0.0, 0.0, 0.0, 1.657492244350329E9, 0.0, 2022-07-10 18:30:44.350
58.0, 24972.79941711419, 7228.442398124028, -31383.615003063085, -53405.11243404299, -1863.7331561724136, 7097.774100038302, -26619.385375903297, -6276.347491305768, 0.034, 0.868, 0.468, 192.0, 0.0, 0.0, 0.0, 0.0, 0.0, 0.0, 0.0, 0.0, 0.0, 1.657492244358157E9, 0.0, 2022-07-10 18:30:44.358
59.0, 24958.427245429426, 7046.007459879811, -31392.220424678377, -53362.17473294434, -1884.4532232824831, 7179.156801600076, -26590.506922067038, -6067.179866693004, 0.034, 0.868, 0.468, 192.0, 0.0, 0.0, 0.0, 0.0, 0.0, 0.0, 0.0, 0.0, 0.0, 1.657492244358218E9, 0.0, 2022-07-10 18:30:44.358
60.0, 23496.89137898581, 6736.212281729256, -31477.760550708837, -53431.44278901134, -1967.1546777671192, 8104.809594727707, -26655.684608898715, -5910.3376758501145, 0.032, 0.864, 0.466, 192.0, 1.0, 0.0, 27.0, 0.0, 14.0, 144.0, 0.0, 0.0, 0.0, 1.65749224436618E9, 0.0, 2022-07-10 18:30:44.366
61.0, 23369.799360012934, 6883.97966432329, -31480.778036210304, -53479.49903959025, -1964.070137032287, 8120.925202479983, -26687.737010447625, -6099.791061853298, 0.032, 0.864, 0.466, 192.0, 0.0, 0.0, 0.0, 0.0, 0.0, 0.0, 0.0, 0.0, 0.0, 1.657492244366204E9, 0.0, 2022-07-10 18:30:44.366
62.0, 24759.18379535482, 7209.398711848106, -31392.1086659561, -53421.4068557509, -1875.5348772448156, 7219.47934859745, -26633.712844099147, -6289.870296701229, 0.032, 0.864, 0.466, 192.0, 0.0, 0.0, 0.0, 0.0, 0.0, 0.0, 0.0, 0.0, 0.0, 1.657492244373302E9, 0.0, 2022-07-10 18:30:44.373
63.0, 25116.38702349508, 7116.460158402939, -31373.556718058197, -53357.72673579773, -1860.1345253151092, 7048.533207003261, -26590.88690172278, -6129.921213379052, 0.032, 0.864, 0.466, 192.0, 0.0, 0.0, 0.0, 0.0, 0.0, 0.0, 0.0, 0.0, 0.0, 1.657492244373332E9, 0.0, 2022-07-10 18:30:44.373
64.0, 23723.60512299599, 6758.452267462286, -31468.819852926717, -53413.49433821373, -1961.7232038644797, 7961.5572645136435, -26667.70984741567, -5917.199661397894, 0.032, 0.864, 0.466, 192.0, 0.0, 0.0, 0.0, 0.0, 0.0, 0.0, 0.0, 0.0, 0.0, 1.657492244380078E9, 0.0, 2022-07-10 18:30:44.380
65.0, 23232.60435254626, 6817.572631546573, -31497.76536199634, -53489.669083317414, -1987.1371373101638, 8220.949258917482, -26706.37836532335, -6054.886407242586, 0.032, 0.864, 0.466, 192.0, 0.0, 0.0, 0.0, 0.0, 0.0, 0.0, 0.0, 0.0, 0.0, 1.657492244387904E9, 0.0, 2022-07-10 18:30:44.387
66.0, 24520.489516316597, 7161.565978713749, -31412.381698177065, -53444.47385602878, -1897.5289937888379, 7371.828838804822, -26638.965504046144, -6268.613787724232, 0.032, 0.864, 0.466, 192.0, 0.0, 0.0, 0.0, 0.0, 0.0, 0.0, 0.0, 0.0, 0.0, 1.657492244387927E9, 0.0, 2022-07-10 18:30:44.387
67.0, 25229.03981554983, 7156.268615277841, -31381.469235595378, -53375.54107612862, -1865.3648335176508, 6985.545991128206, -26586.50595980954, -6176.725766268464, 0.032, 0.864, 0.466, 192.0, 0.0, 0.0, 0.0, 0.0, 0.0, 0.0, 0.0, 0.0, 0.0, 1.657492244395929E9, 0.0, 2022-07-10 18:30:44.395
68.0, 23984.427629044967, 6795.891439424925, -31458.627457455095, -53414.41075973639, -1942.8583315442006, 7787.146602528883, -26660.669047912248, -5951.978975770352, 0.032, 0.864, 0.466, 192.0, 0.0, 0.0, 0.0, 0.0, 0.0, 0.0, 0.0, 0.0, 0.0, 1.657492244395949E9, 0.0, 2022-07-10 18:30:44.395
69.0, 23144.538479392348, 6769.136401311923, -31505.99080395589, -53492.64186532997, -1990.2663815339067, 8253.806323266785, -26716.168429394776, -6025.069180139206, 0.032, 0.864, 0.466, 192.0, 0.0, 0.0, 0.0, 0.0, 0.0, 0.0, 0.0, 0.0, 0.0, 1.657492244404535E9, 0.0, 2022-07-10 18:30:44.404
70.0, 24247.954696173038, 7110.715760077926, -31432.878247842582, -53463.942225449355, -1920.260717899885, 7528.313401736427, -26631.142393486785, -6245.546787446355, 0.03, 0.864, 0.47400000000000003, 192.0, 0.0, 240.0, 27.0, 0.0, 14.0, 208.0, 0.0, 0.0, 0.0, 1.657492244404688E9, 0.0, 2022-07-10 18:30:44.404
71.0, 25243.814318634788, 7188.343368571207, -31372.036799435235, -53386.73930010072, -1857.787592147302, 6940.641336517494, -26579.196939372654, -6220.311667956313, 0.03, 0.864, 0.47400000000000003, 192.0, 0.0, 0.0, 0.0, 0.0, 0.0, 0.0, 0.0, 0.0, 0.0, 1.6574922444106E9, 0.0, 2022-07-10 18:30:44.410
72.0, 24256.358952088234, 6844.1712074483885, -31427.51382917331, -53389.980303046745, -1913.3763806076504, 7591.635893778312, -26614.423288634218, -5972.877856836064, 0.03, 0.864, 0.47400000000000003, 192.0, 0.0, 0.0, 0.0, 0.0, 0.0, 0.0, 0.0, 0.0, 0.0, 1.657492244410621E9, 0.0, 2022-07-10 18:30:44.410
73.0, 23138.704674089513, 6723.494139134185, -31498.681783519005, -53473.01703369821, -1987.517116965904, 8257.092029701715, -26688.340507547917, -5979.315159239192, 0.03, 0.864, 0.47400000000000003, 192.0, 0.0, 0.0, 0.0, 0.0, 0.0, 0.0, 0.0, 0.0, 0.0, 1.657492244418679E9, 0.0, 2022-07-10 18:30:44.418
74.0, 23974.16817833998, 7039.391343521041, -31447.943323605457, -53470.42423134139, -1929.8049127823012, 7688.128374591873, -26664.155920047277, -6217.070665010294, 0.03, 0.864, 0.47400000000000003, 192.0, 0.0, 0.0, 0.0, 0.0, 0.0, 0.0, 0.0, 0.0, 0.0, 1.657492244418726E9, 0.0, 2022-07-10 18:30:44.418
75.0, 25205.257559449383, 7210.561002559782, -31374.719008769873, -53386.560486145085, -1861.9897201048996, 6950.453752333374, -26599.425268104707, -6240.875272855195, 0.03, 0.864, 0.47400000000000003, 192.0, 0.0, 0.0, 0.0, 0.0, 0.0, 0.0, 0.0, 0.0, 0.0, 1.65749224442686E9, 0.0, 2022-07-10 18:30:44.426
76.0, 24544.651752072783, 6909.483004746796, -31418.997814535836, -53378.871486052456, -1909.3530666056952, 7421.13678707323, -26603.761506529037, -5993.307351268215, 0.03, 0.864, 0.47400000000000003, 192.0, 0.0, 0.0, 0.0, 0.0, 0.0, 0.0, 0.0, 0.0, 0.0, 1.657492244426881E9, 0.0, 2022-07-10 18:30:44.426
77.0, 23203.949416154555, 6706.2832959035995, -31498.2347486299, -53466.40091733944, -1983.6726169195913, 8217.395331549089, -26689.23457732613, -5950.1908362139275, 0.03, 0.864, 0.47400000000000003, 192.0, 0.0, 0.0, 0.0, 0.0, 0.0, 0.0, 0.0, 0.0, 0.0, 1.65749224443339E9, 0.0, 2022-07-10 18:30:44.433
78.0, 23717.234875826227, 6984.540162627717, -31459.432120255486, -53473.39701335395, -1944.8029333118122, 7846.714001502276, -26677.27639404254, -6178.893885480629, 0.03, 0.864, 0.47400000000000003, 192.0, 0.0, 0.0, 0.0, 0.0, 0.0, 0.0, 0.0, 0.0, 0.0, 1.657492244433437E9, 0.0, 2022-07-10 18:30:44.433
79.0, 25087.44151442546, 7232.868043526179, -31366.87354646606, -53392.26018098118, -1854.9936240903885, 7008.031846050245, -26590.864549978323, -6258.779020163896, 0.03, 0.864, 0.47400000000000003, 192.0, 0.0, 0.0, 0.0, 0.0, 0.0, 0.0, 0.0, 0.0, 0.0, 1.657492244440299E9, 0.0, 2022-07-10 18:30:44.440
80.0, 24786.229406145743, 6994.062005765678, -31394.857930524104, -53361.41477363286, -1885.168479105053, 7244.200377965019, -26590.663384278225, -6040.067200668717, 0.028, 0.86, 0.47800000000000004, 192.0, 0.0, 224.0, 26.0, 224.0, 14.0, 240.0, 0.0, 0.0, 0.0, 1.657492244448224E9, 0.0, 2022-07-10 18:30:44.448
81.0, 23338.685731731148, 6716.229822186211, -31482.409713555542, -53440.49524551574, -1969.479259190471, 8142.829912046184, -26660.22201302314, -5926.609745813578, 0.028, 0.86, 0.47800000000000004, 192.0, 0.0, 0.0, 0.0, 0.0, 0.0, 0.0, 0.0, 0.0, 0.0, 1.657492244448255E9, 0.0, 2022-07-10 18:30:44.448
82.0, 23496.89137898581, 6928.526691022717, -31471.055027372247, -53472.94997846484, -1952.2460642154294, 7997.856497509062, -26667.66514392676, -6135.419742515057, 0.028, 0.86, 0.47800000000000004, 192.0, 0.0, 0.0, 0.0, 0.0, 0.0, 0.0, 0.0, 0.0, 0.0, 1.657492244455368E9, 0.0, 2022-07-10 18:30:44.455
83.0, 24927.224210169818, 7214.718427028469, -31390.722857799872, -53409.269858511674, -1870.2598655533632, 7121.511652649839, -26614.065660722932, -6273.888799415684, 0.028, 0.86, 0.47800000000000004, 192.0, 0.0, 0.0, 0.0, 0.0, 0.0, 0.0, 0.0, 0.0, 0.0, 1.657492244455389E9, 0.0, 2022-07-10 18:30:44.455
84.0, 24997.252225548295, 7055.037564639755, -31386.83365426465, -53363.56054110057, -1867.7341184299135, 7111.900402534056, -26601.392221616774, -6099.25461998637, 0.028, 0.86, 0.47800000000000004, 192.0, 0.0, 0.0, 0.0, 0.0, 0.0, 0.0, 0.0, 0.0, 0.0, 1.657492244463286E9, 0.0, 2022-07-10 18:30:44.463
85.0, 23531.760100336087, 6728.0091915141575, -31477.246460586368, -53422.09975982902, -1959.063346274298, 8027.137282745515, -26679.75743767708, -5931.281260404738, 0.028, 0.86, 0.47800000000000004, 192.0, 0.0, 0.0, 0.0, 0.0, 0.0, 0.0, 0.0, 0.0, 0.0, 1.657492244463317E9, 0.0, 2022-07-10 18:30:44.463
86.0, 23315.506972730993, 6859.5492076336395, -31482.61087925564, -53476.50390583324, -1958.258683473907, 8114.331437865668, -26683.37842027884, -6092.236172227404, 0.028, 0.86, 0.47800000000000004, 192.0, 0.0, 0.0, 0.0, 0.0, 0.0, 0.0, 0.0, 0.0, 0.0, 1.657492244471148E9, 0.0, 2022-07-10 18:30:44.471
87.0, 24706.925416818314, 7191.293798839307, -31404.044497495237, -53425.00548660821, -1887.3142465727624, 7248.089581500242, -26652.71182688616, -6283.030662897905, 0.028, 0.86, 0.47800000000000004, 192.0, 0.0, 0.0, 0.0, 0.0, 0.0, 0.0, 0.0, 0.0, 0.0, 1.657492244471193E9, 0.0, 2022-07-10 18:30:44.471
88.0, 25154.20617511346, 7118.158890981543, -31381.78216001775, -53369.95314001479, -1867.398842263084, 7012.569250174672, -26617.820753791424, -6161.571283527766, 0.028, 0.86, 0.47800000000000004, 192.0, 0.0, 0.0, 0.0, 0.0, 0.0, 0.0, 0.0, 0.0, 0.0, 1.657492244478865E9, 0.0, 2022-07-10 18:30:44.478
89.0, 23783.28428069166, 6771.528037968641, -31456.548745220753, -53406.699407899316, -1944.6017676117144, 7876.665339072388, -26658.41152172226, -5945.675783833955, 0.028, 0.86, 0.47800000000000004, 192.0, 0.0, 0.0, 0.0, 0.0, 0.0, 0.0, 0.0, 0.0, 0.0, 1.657492244478885E9, 0.0, 2022-07-10 18:30:44.478
90.0, 23202.8765324207, 6807.2461256082215, -31486.745951979872, -53474.291083132164, -1962.3490527092283, 8190.5955899471755, -26684.428952268237, -6059.379107878102, 0.03, 0.86, 0.47800000000000004, 192.0, 0.0, 240.0, 26.0, 224.0, 14.0, 240.0, 0.0, 0.0, 0.0, 1.657492244486656E9, 0.0, 2022-07-10 18:30:44.486
91.0, 24452.808434105926, 7156.55918795576, -31395.59553809113, -53425.832501153054, -1869.5446097307934, 7374.488696395004, -26607.762468786535, -6273.9111511601395, 0.03, 0.86, 0.47800000000000004, 192.0, 0.0, 0.0, 0.0, 0.0, 0.0, 0.0, 0.0, 0.0, 0.0, 1.65749224448668E9, 0.0, 2022-07-10 18:30:44.486
92.0, 25233.510164440893, 7164.985795615411, -31365.554793543197, -53360.65481432138, -1849.9868333323996, 6926.5820892551055, -26601.83925650588, -6207.794691061341, 0.03, 0.86, 0.47800000000000004, 192.0, 0.0, 0.0, 0.0, 0.0, 0.0, 0.0, 0.0, 0.0, 0.0, 1.657492244493519E9, 0.0, 2022-07-10 18:30:44.493
93.0, 24054.299182212257, 6809.369541331475, -31435.024015310293, -53389.421509435364, -1925.4686743579716, 7702.0535113875285, -26626.73909982909, -5950.816685058676, 0.03, 0.86, 0.47800000000000004, 192.0, 0.0, 0.0, 0.0, 0.0, 0.0, 0.0, 0.0, 0.0, 0.0, 1.65749224449354E9, 0.0, 2022-07-10 18:30:44.493
94.0, 23145.097273003732, 6765.917750110359, -31477.08999837518, -53454.778010222675, -1965.970035310988, 8234.315602101757, -26666.45814972617, -5985.32777849767, 0.03, 0.86, 0.47800000000000004, 192.0, 0.0, 0.0, 0.0, 0.0, 0.0, 0.0, 0.0, 0.0, 0.0, 1.657492244500618E9, 0.0, 2022-07-10 18:30:44.500
95.0, 24198.736154882452, 7109.3746554106065, -31410.481799898364, -53431.353382033514, -1890.5105460298714, 7571.7428412130885, -26616.144372957275, -6208.778167817374, 0.03, 0.86, 0.47800000000000004, 192.0, 0.0, 0.0, 0.0, 0.0, 0.0, 0.0, 0.0, 0.0, 0.0, 1.657492244508377E9, 0.0, 2022-07-10 18:30:44.508
96.0, 25270.301135814327, 7217.467691596472, -31347.91926716796, -53352.787000273114, -1831.1890162454865, 6957.919234981446, -26566.523500266496, -6203.659618337109, 0.03, 0.86, 0.47800000000000004, 192.0, 0.0, 0.0, 0.0, 0.0, 0.0, 0.0, 0.0, 0.0, 0.0, 1.657492244508398E9, 0.0, 2022-07-10 18:30:44.508
97.0, 24352.985543368526, 6884.426699212397, -31401.764619560796, -53363.493485867206, -1892.9245344310445, 7555.761343927544, -26606.756640286047, -5974.151906270016, 0.03, 0.86, 0.47800000000000004, 192.0, 0.0, 0.0, 0.0, 0.0, 0.0, 0.0, 0.0, 0.0, 0.0, 1.65749224451525E9, 0.0, 2022-07-10 18:30:44.515
98.0, 23159.469444688493, 6742.04608703209, -31474.56425125173, -53447.75956246371, -1963.131363765164, 8246.2961371298, -26670.235594539117, -5967.6251968890665, 0.03, 0.86, 0.47800000000000004, 192.0, 0.0, 0.0, 0.0, 0.0, 0.0, 0.0, 0.0, 0.0, 0.0, 1.657492244515296E9, 0.0, 2022-07-10 18:30:44.515
99.0, 23915.15957297797, 7056.356317562619, -31426.64211113955, -53445.1667601069, -1909.71069451698, 7722.840633730964, -26644.12875701532, -6199.32337991278, 0.03, 0.86, 0.47800000000000004, 192.0, 0.0, 0.0, 0.0, 0.0, 0.0, 0.0, 0.0, 0.0, 0.0, 1.65749224452305E9, 0.0, 2022-07-10 18:30:44.523
100.0, 25194.014631988364, 7246.346145432729, -31348.63452299053, -53363.13585795592, -1829.2220627334193, 6954.879397735524, -26573.698410236648, -6240.8082176218295, 0.03, 0.864, 0.47600000000000003, 192.0, 0.0, 240.0, 27.0, 0.0, 14.0, 224.0, 0.0, 0.0, 0.0, 1.657492244523104E9, 0.0, 2022-07-10 18:30:44.523
101.0, 24622.48052626616, 6957.896883236991, -31390.097008955123, -53349.925976982835, -1884.6767407270363, 7368.8784085367215, -26614.579750845405, -6006.673694452488, 0.03, 0.864, 0.47600000000000003, 192.0, 0.0, 0.0, 0.0, 0.0, 0.0, 0.0, 0.0, 0.0, 0.0, 1.657492244531076E9, 0.0, 2022-07-10 18:30:44.531
102.0, 23245.858937008255, 6730.579642126518, -31478.498158275863, -53437.790684436644, -1969.456907446016, 8200.408005763054, -26696.409487296285, -5947.441571645924, 0.03, 0.864, 0.47600000000000003, 192.0, 0.0, 0.0, 0.0, 0.0, 0.0, 0.0, 0.0, 0.0, 0.0, 1.657492244531097E9, 0.0, 2022-07-10 18:30:44.531
103.0, 23667.09991301297, 6990.821002819658, -31450.536125962273, -53458.980138180275, -1926.1168749471756, 7878.900513517919, -26660.691399656702, -6170.959016198995, 0.03, 0.864, 0.47600000000000003, 192.0, 0.0, 0.0, 0.0, 0.0, 0.0, 0.0, 0.0, 0.0, 0.0, 1.657492244539125E9, 0.0, 2022-07-10 18:30:44.539
104.0, 25062.184043190962, 7228.62121207967, -31376.59655530412, -53390.22617223575, -1856.0665078242432, 7032.43995099544, -26611.271692666018, -6273.262950570936, 0.03, 0.864, 0.47600000000000003, 192.0, 0.0, 0.0, 0.0, 0.0, 0.0, 0.0, 0.0, 0.0, 0.0, 1.657492244539161E9, 0.0, 2022-07-10 18:30:44.539
105.0, 24858.403188991928, 7003.315627970175, -31393.069790967682, -53359.17959918733, -1882.329807559229, 7210.717464770969, -26613.0821839669, -6075.561770863745, 0.03, 0.864, 0.47600000000000003, 192.0, 0.0, 0.0, 0.0, 0.0, 0.0, 0.0, 0.0, 0.0, 0.0, 1.657492244547052E9, 0.0, 2022-07-10 18:30:44.547
106.0, 23392.06169749042, 6713.637019829395, -31478.207585597946, -53425.698390686324, -1968.67459639008, 8099.623990014075, -26685.457132513184, -5945.206397200393, 0.03, 0.864, 0.47600000000000003, 192.0, 0.0, 0.0, 0.0, 0.0, 0.0, 0.0, 0.0, 0.0, 0.0, 1.657492244547072E9, 0.0, 2022-07-10 18:30:44.547
107.0, 23454.803044176468, 6907.761920423737, -31470.160957594035, -53462.57876903758, -1952.8495613157227, 8007.937134258406, -26683.51253074557, -6136.693791949009, 0.03, 0.864, 0.47600000000000003, 192.0, 0.0, 0.0, 0.0, 0.0, 0.0, 0.0, 0.0, 0.0, 0.0, 1.657492244555116E9, 0.0, 2022-07-10 18:30:44.555
108.0, 24877.178654334388, 7220.9545637315, -31377.870604738073, -53392.081367025545, -1862.2802927828186, 7126.809016085746, -26608.611835075837, -6284.952912921061, 0.03, 0.864, 0.47600000000000003, 192.0, 0.0, 0.0, 0.0, 0.0, 0.0, 0.0, 0.0, 0.0, 0.0, 1.657492244555146E9, 0.0, 2022-07-10 18:30:44.555
109.0, 25058.451301866928, 7076.2046666389315, -31371.76857850177, -53344.963889713756, -1861.9450166159888, 7072.382518337074, -26595.69252678067, -6120.667591174554, 0.03, 0.864, 0.47600000000000003, 192.0, 0.0, 0.0, 0.0, 0.0, 0.0, 0.0, 0.0, 0.0, 0.0, 1.657492244562749E9, 0.0, 2022-07-10 18:30:44.562
110.0, 23601.028156403085, 6735.452322417775, -31462.784881923784, -53406.475890454756, -1953.229540971463, 7968.151029127959, -26657.249231010584, -5936.533920351734, 0.036000000000000004, 0.866, 0.47200000000000003, 192.0, 1.0, 32.0, 27.0, 16.0, 14.0, 192.0, 0.0, 0.0, 0.0, 1.657492244568437E9, 0.0, 2022-07-10 18:30:44.568
111.0, 23279.185387991118, 6845.177035948877, -31486.298917090768, -53465.21627488331, -1973.39081447015, 8112.096263420137, -26714.58145553845, -6100.819242098241, 0.036000000000000004, 0.866, 0.47200000000000003, 192.0, 0.0, 0.0, 0.0, 0.0, 0.0, 0.0, 0.0, 0.0, 0.0, 1.657492244568471E9, 0.0, 2022-07-10 18:30:44.568
112.0, 24649.39202659035, 7185.839973192213, -31402.45752363891, -53408.5546026891, -1889.2588483403742, 7269.144924777142, -26631.12004174233, -6279.543790762877, 0.036000000000000004, 0.866, 0.47200000000000003, 192.0, 0.0, 0.0, 0.0, 0.0, 0.0, 0.0, 0.0, 0.0, 0.0, 1.657492244575219E9, 0.0, 2022-07-10 18:30:44.575
113.0, 25197.076820978742, 7137.895481335579, -31373.132034913546, -53346.99789845919, -1859.7098421704582, 6983.176706215943, -26571.597346257848, -6155.446905547012, 0.036000000000000004, 0.866, 0.47200000000000003, 192.0, 0.0, 0.0, 0.0, 0.0, 0.0, 0.0, 0.0, 0.0, 0.0, 1.657492244575257E9, 0.0, 2022-07-10 18:30:44.575
114.0, 23842.561106987134, 6777.205381060288, -31456.168765565013, -53395.72470137176, -1944.7805815673569, 7802.904582369874, -26656.221050765642, -5952.403658915003, 0.036000000000000004, 0.866, 0.47200000000000003, 192.0, 0.0, 0.0, 0.0, 0.0, 0.0, 0.0, 0.0, 0.0, 0.0, 1.657492244583303E9, 0.0, 2022-07-10 18:30:44.583
115.0, 23161.883433089668, 6803.222811606266, -31484.89075719008, -53458.555455035625, -1975.3801197266723, 8164.399345445556, -26708.255911857595, -6046.705668771943, 0.036000000000000004, 0.866, 0.47200000000000003, 192.0, 0.0, 0.0, 0.0, 0.0, 0.0, 0.0, 0.0, 0.0, 0.0, 1.657492244583323E9, 0.0, 2022-07-10 18:30:44.583
116.0, 24385.753200740004, 7160.8507228911785, -31402.278709683265, -53408.39814047792, -1893.2374588534187, 7410.564411945869, -26617.016090991034, -6237.6342699091765, 0.036000000000000004, 0.866, 0.47200000000000003, 192.0, 0.0, 0.0, 0.0, 0.0, 0.0, 0.0, 0.0, 0.0, 0.0, 1.657492244590373E9, 0.0, 2022-07-10 18:30:44.590
117.0, 25265.04847586733, 7209.286953125829, -31352.88135443704, -53340.71705826725, -1846.4776094529163, 6933.131150380511, -26558.78979668496, -6178.5586093138, 0.036000000000000004, 0.866, 0.47200000000000003, 192.0, 0.0, 0.0, 0.0, 0.0, 0.0, 0.0, 0.0, 0.0, 0.0, 1.657492244590446E9, 0.0, 2022-07-10 18:30:44.590
118.0, 24132.977322694936, 6856.218797709799, -31419.333090702665, -53361.63829107741, -1916.5279765758487, 7648.945766561719, -26610.93641649919, -5941.496007620813, 0.036000000000000004, 0.866, 0.47200000000000003, 192.0, 0.0, 0.0, 0.0, 0.0, 0.0, 0.0, 0.0, 0.0, 0.0, 1.657492244598041E9, 0.0, 2022-07-10 18:30:44.598
119.0, 23122.61141808169, 6768.91288386737, -31483.460245544942, -53446.4184577964, -1970.6862533910578, 8202.95610463096, -26678.863367898866, -5991.809784389709, 0.036000000000000004, 0.866, 0.47200000000000003, 192.0, 0.0, 0.0, 0.0, 0.0, 0.0, 0.0, 0.0, 0.0, 0.0, 1.65749224459807E9, 0.0, 2022-07-10 18:30:44.598
120.0, 24114.425374797032, 7095.2260011703975, -31430.330148974677, -53433.186225078854, -1913.0634561852762, 7576.347300570882, -26652.0412745525, -6232.381609962179, 0.028, 0.862, 0.47200000000000003, 192.0, 0.0, 224.0, 26.0, 240.0, 14.0, 192.0, 0.0, 0.0, 0.0, 1.657492244605977E9, 0.0, 2022-07-10 18:30:44.605
121.0, 25256.957144374508, 7227.436569623539, -31363.006694675292, -53357.83849452001, -1851.3055862552628, 6924.749246209771, -26598.55355007095, -6237.611918164721, 0.028, 0.862, 0.47200000000000003, 192.0, 0.0, 0.0, 0.0, 0.0, 0.0, 0.0, 0.0, 0.0, 0.0, 1.657492244606008E9, 0.0, 2022-07-10 18:30:44.606
122.0, 24414.475192365077, 6903.828013399603, -31415.577997634173, -53362.97939574473, -1911.3200201177622, 7466.019089939487, -26645.447509938185, -6007.098377597139, 0.028, 0.862, 0.47200000000000003, 192.0, 0.0, 0.0, 0.0, 0.0, 0.0, 0.0, 0.0, 0.0, 0.0, 1.657492244613866E9, 0.0, 2022-07-10 18:30:44.613
123.0, 23156.67547663158, 6738.0451247745905, -31485.71777173493, -53443.28921357265, -1975.067195304298, 8183.711252654941, -26704.120839133364, -5983.986673830352, 0.028, 0.862, 0.47200000000000003, 192.0, 0.0, 0.0, 0.0, 0.0, 0.0, 0.0, 0.0, 0.0, 0.0, 1.657492244613901E9, 0.0, 2022-07-10 18:30:44.613
124.0, 23852.127653614003, 7040.553634232716, -31438.443832211953, -53438.57299549258, -1923.4123138680834, 7740.565567084023, -26675.28708878602, -6210.320438184791, 0.028, 0.862, 0.47200000000000003, 192.0, 0.0, 0.0, 0.0, 0.0, 0.0, 0.0, 0.0, 0.0, 0.0, 1.657492244620181E9, 0.0, 2022-07-10 18:30:44.620
125.0, 25185.87859700663, 7243.216901208985, -31363.11845339757, -53361.16890444385, -1852.043193822288, 6978.281674180231, -26621.911123026744, -6268.680842957598, 0.028, 0.862, 0.47200000000000003, 192.0, 0.0, 0.0, 0.0, 0.0, 0.0, 0.0, 0.0, 0.0, 0.0, 1.657492244620246E9, 0.0, 2022-07-10 18:30:44.620
126.0, 24688.529931131594, 6964.80357227368, -31397.87541602557, -53352.7422967842, -1894.6679704985584, 7308.931029907589, -26634.60691387736, -6052.427715352502, 0.028, 0.862, 0.47200000000000003, 192.0, 0.0, 0.0, 0.0, 0.0, 0.0, 0.0, 0.0, 0.0, 0.0, 1.657492244627725E9, 0.0, 2022-07-10 18:30:44.627
127.0, 23251.0892452108, 6718.66616233184, -31474.027809384803, -53431.75571343371, -1960.1138782636976, 8126.915469994005, -26657.80802462197, -5946.525150123257, 0.028, 0.862, 0.47200000000000003, 192.0, 0.0, 0.0, 0.0, 0.0, 0.0, 0.0, 0.0, 0.0, 0.0, 1.657492244635616E9, 0.0, 2022-07-10 18:30:44.635
128.0, 23587.348888796438, 6969.385679887018, -31443.18240203648, -53441.1657978494, -1922.3394301342287, 7875.994786738728, -26647.32505647243, -6140.471236761956, 0.028, 0.862, 0.47200000000000003, 192.0, 0.0, 0.0, 0.0, 0.0, 0.0, 0.0, 0.0, 0.0, 0.0, 1.657492244635645E9, 0.0, 2022-07-10 18:30:44.635
129.0, 25029.438737563938, 7245.116799487687, -31365.3536278431, -53371.92009352685, -1856.8264671357235, 7051.953023904923, -26620.502963126062, -6269.709023202542, 0.028, 0.862, 0.47200000000000003, 192.0, 0.0, 0.0, 0.0, 0.0, 0.0, 0.0, 0.0, 0.0, 0.0, 1.65749224464373E9, 0.0, 2022-07-10 18:30:44.643
130.0, 24924.89962874647, 7040.799503421725, -31378.764674516282, -53340.001802444676, -1876.7865749343127, 7167.824467161235, -26629.957751030655, -6088.704596603465, 0.03, 0.862, 0.46, 192.0, 0.0, 240.0, 26.0, 240.0, 14.0, 96.0, 0.0, 0.0, 0.0, 1.657492244643752E9, 0.0, 2022-07-10 18:30:44.643
131.0, 23423.53295368349, 6733.66418286135, -31463.45543425744, -53405.93944858783, -1948.6250816136696, 8046.717410888364, -26668.872138127346, -5923.525205078746, 0.03, 0.862, 0.46, 192.0, 0.0, 0.0, 0.0, 0.0, 0.0, 0.0, 0.0, 0.0, 0.0, 1.657492244651605E9, 0.0, 2022-07-10 18:30:44.651
132.0, 23382.539854352457, 6904.029179099701, -31461.935515634483, -53448.47481828628, -1942.5454071218262, 8028.500739157288, -26662.56894619095, -6095.544230406789, 0.03, 0.862, 0.46, 192.0, 0.0, 0.0, 0.0, 0.0, 0.0, 0.0, 0.0, 0.0, 0.0, 1.657492244651741E9, 0.0, 2022-07-10 18:30:44.651
133.0, 24835.962037558802, 7212.840880494223, -31382.229194906857, -53388.505087912694, -1863.3531765166733, 7194.288932596319, -26596.78776225898, -6255.538017217877, 0.03, 0.862, 0.46, 192.0, 0.0, 0.0, 0.0, 0.0, 0.0, 0.0, 0.0, 0.0, 0.0, 1.657492244659597E9, 0.0, 2022-07-10 18:30:44.659
134.0, 25115.314139761227, 7105.619562342115, -31356.569392272162, -53329.31766859504, -1830.943147056478, 7075.288245116263, -26531.83359287186, -6093.510221661356, 0.03, 0.862, 0.46, 192.0, 0.0, 0.0, 0.0, 0.0, 0.0, 0.0, 0.0, 0.0, 0.0, 1.657492244659644E9, 0.0, 2022-07-10 18:30:44.659
135.0, 23632.72293004071, 6755.568892427551, -31442.69066365846, -53388.3486257015, -1913.130511418642, 7909.544755166145, -26590.126942411298, -5912.863422973564, 0.03, 0.862, 0.46, 192.0, 0.0, 0.0, 0.0, 0.0, 0.0, 0.0, 0.0, 0.0, 0.0, 1.657492244666101E9, 0.0, 2022-07-10 18:30:44.666
136.0, 23206.095183622263, 6840.550224846629, -31470.60799248314, -53446.597271752034, -1948.2003984690189, 8098.349940580123, -26654.969353076143, -6057.233340410393, 0.03, 0.862, 0.46, 192.0, 0.0, 0.0, 0.0, 0.0, 0.0, 0.0, 0.0, 0.0, 0.0, 1.657492244666121E9, 0.0, 2022-07-10 18:30:44.666
137.0, 24581.688592635226, 7184.3871098026175, -31388.375924632066, -53395.74705311621, -1868.8293539082235, 7309.288657818874, -26608.27655890901, -6249.994784592961, 0.03, 0.862, 0.46, 192.0, 0.0, 0.0, 0.0, 0.0, 0.0, 0.0, 0.0, 0.0, 0.0, 1.657492244672912E9, 0.0, 2022-07-10 18:30:44.672
