%OpenBCI Raw EEG Data
%Number of channels = 8
%Sample Rate = 250 Hz
%Board = OpenBCI_GUI$BoardCytonSerial
Sample Index, EXG Channel 0, EXG Channel 1, EXG Channel 2, EXG Channel 3, EXG Channel 4, EXG Channel 5, EXG Channel 6, EXG Channel 7, Accel Channel 0, Accel Channel 1, Accel Channel 2, Other, Other, Other, Other, Other, Other, Other, Analog Channel 0, Analog Channel 1, Analog Channel 2, Timestamp, Other, Timestamp (Formatted)
234.0, 36734.734384385876, 29717.18069519767, -12330.451587492418, -37568.90148745793, 11982.524333301108, 29080.915937532896, -11949.354344529433, 17896.080660352785, 0.0, 0.0, 0.0, 192.0, 0.0, 0.0, 0.0, 0.0, 0.0, 0.0, 0.0, 0.0, 0.0, 1.657492799837187E9, 0.0, 2022-07-10 18:39:59.837
235.0, 34159.56755394549, 29345.851164561653, -12260.065944202655, -38113.613499833766, 12237.825958469624, 25209.616149618167, -11698.83599267435, 16799.191152953048, 0.038, 0.934, 0.294, 192.0, 1.0, 48.0, 29.0, 48.0, 9.0, 48.0, 0.0, 0.0, 0.0, 1.657492799837215E9, 0.0, 2022-07-10 18:39:59.837
236.0, 32593.626689151133, 29328.32739690869, -12034.358028692965, -37618.14238049297, 12399.786698792781, 24297.553217119363, -11525.22999348998, 17046.37909488429, 0.038, 0.934, 0.294, 192.0, 0.0, 0.0, 0.0, 0.0, 0.0, 0.0, 0.0, 0.0, 0.0, 1.657492799837243E9, 0.0, 2022-07-10 18:39:59.837
237.0, 34880.299553906865, 29685.038886670936, -12060.15194179439, -36973.741587846474, 12172.514161171219, 28011.54142755764, -11741.639583306263, 18198.23154189963, 0.038, 0.934, 0.294, 192.0, 0.0, 0.0, 0.0, 0.0, 0.0, 0.0, 0.0, 0.0, 0.0, 1.657492799837252E9, 0.0, 2022-07-10 18:39:59.837
238.0, 36618.21474054036, 29750.685960136172, -12294.644092875016, -37418.429543784805, 11988.313435115033, 29284.60738475411, -11942.51471072611, 18057.482607064558, 0.038, 0.934, 0.294, 192.0, 0.0, 0.0, 0.0, 0.0, 0.0, 0.0, 0.0, 0.0, 0.0, 1.657492799837259E9, 0.0, 2022-07-10 18:39:59.837
0.0, 0.0, 0.0, 0.0, 0.0, 0.0, 0.0, 0.0, 0.0, 0.012, 0.912, 0.398, 192.0, 0.0, 96.0, 28.0, 128.0, 12.0, 112.0, 0.0, 0.0, 0.0, 1.657492799963481E9, 0.0, 2022-07-10 18:39:59.963
1.0, 34708.10171462318, 27619.42477457819, -12112.25385811971, -37895.66163965007, 12263.955147737879, 24046.364312930622, -11874.431297115243, 15896.024214747456, 0.012, 0.912, 0.398, 192.0, 0.0, 0.0, 0.0, 0.0, 0.0, 0.0, 0.0, 0.0, 0.0, 1.657492799969156E9, 0.0, 2022-07-10 18:39:59.969
2.0, 33494.133769766544, 27494.523226561934, -11952.729457942183, -37718.03232646374, 12430.542699163283, 22580.84983597396, -11700.60178048632, 15750.02261996539, 0.012, 0.912, 0.398, 192.0, 0.0, 0.0, 0.0, 0.0, 0.0, 0.0, 0.0, 0.0, 0.0, 1.657492799969174E9, 0.0, 2022-07-10 18:39:59.969
3.0, 34388.002382278726, 27479.301688587868, -11883.953140253203, -37106.73446735555, 12340.398113775029, 24977.94031833891, -11758.246929436556, 16696.663701136553, 0.012, 0.912, 0.398, 192.0, 0.0, 0.0, 0.0, 0.0, 0.0, 0.0, 0.0, 0.0, 0.0, 1.657492799976085E9, 0.0, 2022-07-10 18:39:59.976
4.0, 35725.7319361844, 27450.80321440735, -12050.585395167518, -37240.17438175373, 12155.750352829738, 26749.651342588826, -11928.12018729689, 16952.658230383186, 0.012, 0.912, 0.398, 192.0, 0.0, 0.0, 0.0, 0.0, 0.0, 0.0, 0.0, 0.0, 0.0, 1.657492799976129E9, 0.0, 2022-07-10 18:39:59.976
5.0, 34985.41980808017, 27314.636387185623, -12121.708646024304, -37837.50240057736, 12239.591746281594, 24571.96558379717, -11866.563483066975, 16060.309536493962, 0.012, 0.912, 0.398, 192.0, 0.0, 0.0, 0.0, 0.0, 0.0, 0.0, 0.0, 0.0, 0.0, 1.657492799984235E9, 0.0, 2022-07-10 18:39:59.984
6.0, 33580.54561383076, 27248.855203253654, -11986.815868236527, -37812.513150276325, 12417.712797845936, 22537.912134875314, -11703.84278343234, 15679.39110748662, 0.012, 0.912, 0.398, 192.0, 0.0, 0.0, 0.0, 0.0, 0.0, 0.0, 0.0, 0.0, 0.0, 1.657492799984301E9, 0.0, 2022-07-10 18:39:59.984
7.0, 34091.68530603472, 27325.901666391095, -11884.82485828696, -37203.42811386921, 12370.64002402306, 24381.059334404392, -11741.192548417157, 16496.615588261557, 0.012, 0.912, 0.398, 192.0, 0.0, 0.0, 0.0, 0.0, 0.0, 0.0, 0.0, 0.0, 0.0, 1.657492799990953E9, 0.0, 2022-07-10 18:39:59.990
8.0, 35603.04321086922, 27361.642105775132, -12021.058740742057, -37157.62938948028, 12186.104021800045, 26710.088754902932, -11928.07548380798, 16988.197504067124, 0.012, 0.912, 0.398, 192.0, 0.0, 0.0, 27.0, 176.0, 13.0, 224.0, 0.0, 0.0, 0.0, 1.657492799990982E9, 0.0, 2022-07-10 18:39:59.990
9.0, 35239.425032070285, 27243.82606075121, -12130.247012406233, -37759.00307405032, 12218.089368115589, 25071.01298225081, -11912.49631792263, 16202.757203907635, 0.012, 0.912, 0.398, 192.0, 0.0, 0.0, 0.0, 0.0, 0.0, 0.0, 0.0, 0.0, 0.0, 1.657492799998307E9, 0.0, 2022-07-10 18:39:59.998
10.0, 33735.64436860614, 27137.163536210483, -12021.461072142252, -37874.11455799515, 12394.69050105697, 22615.629150346416, -11741.505472839532, 15630.954877251968, 0.012, 0.912, 0.398, 192.0, 0.0, 0.0, 0.0, 0.0, 0.0, 0.0, 0.0, 0.0, 0.0, 1.657492799998328E9, 0.0, 2022-07-10 18:39:59.998
11.0, 33831.55570406386, 27171.18289127146, -11896.626579359363, -37307.16255988629, 12389.616655065616, 23799.444591932846, -11734.263507636013, 16305.128193512941, 0.012, 0.912, 0.398, 192.0, 0.0, 0.0, 0.0, 0.0, 0.0, 0.0, 0.0, 0.0, 0.0, 1.657492800006451E9, 0.0, 2022-07-10 18:40:00.006
12.0, 35393.4061996229, 27221.116688384616, -11998.215257908734, -37103.73933359854, 12187.892161356469, 26505.570293136872, -11938.089065323957, 16990.857361657305, 0.012, 0.912, 0.398, 192.0, 0.0, 0.0, 0.0, 0.0, 0.0, 0.0, 0.0, 0.0, 0.0, 1.6574928000065E9, 0.0, 2022-07-10 18:40:00.006
13.0, 35436.09803153253, 27118.20925691238, -12143.63570733496, -37681.844852190596, 12156.59971911904, 25544.937019936686, -11986.100612413957, 16355.978412148765, 0.012, 0.912, 0.398, 192.0, 0.0, 0.0, 0.0, 0.0, 0.0, 0.0, 0.0, 0.0, 0.0, 1.657492800014732E9, 0.0, 2022-07-10 18:40:00.014
14.0, 33924.8071819314, 27010.563255615623, -12052.977031824235, -37945.03664315184, 12351.037544135756, 22812.927998653413, -11804.783261392506, 15609.988940952891, 0.012, 0.912, 0.398, 192.0, 0.0, 0.0, 0.0, 0.0, 0.0, 0.0, 0.0, 0.0, 0.0, 1.657492800014782E9, 0.0, 2022-07-10 18:40:00.014
15.0, 33607.47946589941, 27043.77794787621, -11899.487602649642, -37434.05341315906, 12409.375597164108, 23271.51873964295, -11747.808664775928, 16089.232693819129, 0.012, 0.912, 0.398, 192.0, 0.0, 0.0, 0.0, 0.0, 0.0, 0.0, 0.0, 0.0, 0.0, 1.657492800020517E9, 0.0, 2022-07-10 18:40:00.020
16.0, 35121.89955972428, 27125.69709130491, -11968.353327316443, -37081.29818216541, 12202.21962955232, 26183.41460030253, -11946.31450728351, 16926.149061459193, 0.012, 0.912, 0.398, 192.0, 0.0, 0.0, 0.0, 0.0, 0.0, 0.0, 0.0, 0.0, 0.0, 1.657492800028617E9, 0.0, 2022-07-10 18:40:00.028
17.0, 35574.9470680889, 27051.846927624578, -12135.700838053328, -37579.58562130757, 12119.853451234514, 25985.981641528804, -12041.532938663118, 16497.777878973233, 0.012, 0.912, 0.398, 192.0, 0.0, 0.0, 0.0, 0.0, 0.0, 0.0, 0.0, 0.0, 0.0, 1.657492800028679E9, 0.0, 2022-07-10 18:40:00.028
18.0, 34169.245859294635, 26947.19606008483, -12087.86810491897, -37964.4603090835, 12300.701415622403, 23173.551043695337, -11864.216549899167, 15649.171548983044, 0.002, 0.852, 0.452, 192.0, 0.0, 16.0, 26.0, 160.0, 14.0, 32.0, 0.0, 0.0, 0.0, 1.657492800036021E9, 0.0, 2022-07-10 18:40:00.036
19.0, 33464.09302521861, 26977.23680463276, -11920.654704648818, -37557.36798731899, 12405.17346920651, 22865.700467312392, -11734.688190780664, 15908.742357342526, 0.002, 0.852, 0.452, 192.0, 0.0, 0.0, 0.0, 0.0, 0.0, 0.0, 0.0, 0.0, 0.0, 1.65749280003605E9, 0.0, 2022-07-10 18:40:00.036
20.0, 34821.916797389604, 27080.65832622747, -11941.665344436806, -37073.81034777288, 12232.841519456091, 25750.081330547495, -11906.93073355326, 16840.76539763992, 0.002, 0.852, 0.452, 192.0, 0.0, 0.0, 0.0, 0.0, 0.0, 0.0, 0.0, 0.0, 0.0, 1.657492800044086E9, 0.0, 2022-07-10 18:40:00.044
21.0, 35657.60381908462, 27065.705009186866, -12114.891363965437, -37451.17484941183, 12110.219849374278, 26330.77965149637, -12040.124778762434, 16653.748351782364, 0.002, 0.852, 0.452, 192.0, 0.0, 0.0, 0.0, 0.0, 0.0, 0.0, 0.0, 0.0, 0.0, 1.657492800044109E9, 0.0, 2022-07-10 18:40:00.044
22.0, 34441.11012710454, 26963.28931609265, -12108.543468540129, -37930.999747633905, 12263.821037271147, 23625.100985181452, -11884.288416420033, 15760.416181137107, 0.002, 0.852, 0.452, 192.0, 0.0, 0.0, 0.0, 0.0, 0.0, 0.0, 0.0, 0.0, 0.0, 1.657492800050438E9, 0.0, 2022-07-10 18:40:00.050
23.0, 33409.17478909192, 26972.252365619228, -11940.12307406939, -37659.38134901301, 12409.241486697376, 22605.52616185262, -11738.84561524935, 15775.280091199887, 0.002, 0.852, 0.452, 192.0, 0.0, 0.0, 0.0, 0.0, 0.0, 0.0, 0.0, 0.0, 0.0, 1.657492800050463E9, 0.0, 2022-07-10 18:40:00.050
24.0, 34500.67752607793, 27086.067448385653, -11907.26600972009, -37094.64217360523, 12279.333147923131, 25237.108795298194, -11850.380820081333, 16726.279762539838, 0.002, 0.852, 0.452, 192.0, 0.0, 0.0, 0.0, 0.0, 0.0, 0.0, 0.0, 0.0, 0.0, 1.657492800058733E9, 0.0, 2022-07-10 18:40:00.058
25.0, 35670.50077563534, 27099.5455502922, -12076.24519780221, -37326.74268802914, 12113.72907325376, 26566.523500266496, -12009.078205714013, 16805.024958255883, 0.002, 0.852, 0.452, 192.0, 0.0, 0.0, 0.0, 0.0, 0.0, 0.0, 0.0, 0.0, 0.0, 1.657492800058839E9, 0.0, 2022-07-10 18:40:00.058
26.0, 34730.45345907849, 27002.270758422706, -12120.322837868076, -37889.269040735846, 12223.118510618033, 24137.671189030552, -11920.945277326737, 15893.207894946087, 0.002, 0.852, 0.452, 192.0, 0.0, 0.0, 0.0, 0.0, 0.0, 0.0, 0.0, 0.0, 0.0, 1.657492800066622E9, 0.0, 2022-07-10 18:40:00.066
27.0, 33437.0921179166, 26995.498179852748, -11964.374716803399, -37762.802870607724, 12399.920809259513, 22468.666430552774, -11751.161426444225, 15667.678793392039, 0.004, 0.866, 0.446, 192.0, 0.0, 32.0, 27.0, 16.0, 13.0, 240.0, 0.0, 0.0, 0.0, 1.657492800066713E9, 0.0, 2022-07-10 18:40:00.066
28.0, 34190.70353397173, 27123.685434303934, -11892.312692679488, -37154.88012491228, 12298.734462110337, 24672.436675123772, -11836.72390421914, 16555.17715873446, 0.004, 0.866, 0.446, 192.0, 0.0, 0.0, 0.0, 0.0, 0.0, 0.0, 0.0, 0.0, 0.0, 1.657492800073298E9, 0.0, 2022-07-10 18:40:00.073
29.0, 35612.07331562917, 27194.316946782703, -12057.179159781834, -37234.161762495256, 12101.279151592154, 26645.536916916004, -12025.305572188565, 16870.53792125439, 0.004, 0.866, 0.446, 192.0, 0.0, 0.0, 0.0, 0.0, 0.0, 0.0, 0.0, 0.0, 0.0, 1.657492800073331E9, 0.0, 2022-07-10 18:40:00.073
30.0, 35008.442104869144, 27110.83318124213, -12134.44914036383, -37824.046650415265, 12181.588969420072, 24666.334648887474, -11960.217292334712, 16031.453434402161, 0.004, 0.866, 0.446, 192.0, 0.0, 0.0, 0.0, 0.0, 0.0, 0.0, 0.0, 0.0, 0.0, 1.65749280008031E9, 0.0, 2022-07-10 18:40:00.080
31.0, 33549.521392526796, 27076.187977336405, -11987.50877231464, -37831.9815196969, 12378.440782837963, 22489.98999476314, -11749.999135732549, 15608.42431884102, 0.004, 0.866, 0.446, 192.0, 0.0, 0.0, 0.0, 0.0, 0.0, 0.0, 0.0, 0.0, 0.0, 1.657492800088391E9, 0.0, 2022-07-10 18:40:00.088
32.0, 33912.37961201425, 27188.95252811343, -11874.96773898217, -37232.50773340556, 12346.455436522418, 24107.496334015887, -11749.060362465425, 16386.4661915858, 0.004, 0.866, 0.446, 192.0, 0.0, 0.0, 0.0, 0.0, 0.0, 0.0, 0.0, 0.0, 0.0, 1.657492800088422E9, 0.0, 2022-07-10 18:40:00.088
33.0, 35461.28844753366, 27269.4858633859, -11998.32701663101, -37134.674147924685, 12149.178939959877, 26562.567241497905, -11928.164890785802, 16945.3492099463, 0.004, 0.866, 0.446, 192.0, 0.0, 0.0, 0.0, 0.0, 0.0, 0.0, 0.0, 0.0, 0.0, 1.657492800095647E9, 0.0, 2022-07-10 18:40:00.095
34.0, 35248.61159904142, 27188.52784496878, -12120.367541356987, -37711.483265338335, 12155.057448751622, 25194.93105351103, -11936.815015890004, 16250.50053006417, 0.004, 0.866, 0.446, 192.0, 0.0, 0.0, 0.0, 0.0, 0.0, 0.0, 0.0, 0.0, 0.0, 1.657492800095693E9, 0.0, 2022-07-10 18:40:00.095
35.0, 33708.7552200264, 27107.525123062747, -12016.431929639808, -37881.62474413213, 12346.008401633311, 22651.347237986, -11758.2245776921, 15630.597249340684, 0.004, 0.866, 0.446, 192.0, 0.0, 0.0, 0.0, 0.0, 0.0, 0.0, 0.0, 0.0, 0.0, 1.65749280010277E9, 0.0, 2022-07-10 18:40:00.102
36.0, 33645.96916985144, 27195.680403194478, -11872.039660458526, -37332.53178984306, 12375.244483380853, 23569.311031021003, -11712.649370747731, 16234.094349633975, 0.004, 0.866, 0.446, 192.0, 0.0, 0.0, 0.0, 0.0, 0.0, 0.0, 0.0, 0.0, 0.0, 1.657492800102791E9, 0.0, 2022-07-10 18:40:00.102
37.0, 35222.16948535079, 27309.45078247199, -11965.469952281708, -37081.81227228788, 12175.151667016944, 26338.60276205573, -11908.517707409586, 16972.104248059302, 0.004, 0.876, 0.436, 192.0, 0.0, 32.0, 27.0, 96.0, 13.0, 160.0, 0.0, 0.0, 0.0, 1.657492800110875E9, 0.0, 2022-07-10 18:40:00.110
38.0, 35421.323528447574, 27251.604467821657, -12111.44919531932, -37611.97329902331, 12137.310163654109, 25656.31576255748, -11961.781914446583, 16418.183316967883, 0.004, 0.876, 0.436, 192.0, 0.0, 0.0, 0.0, 0.0, 0.0, 0.0, 0.0, 0.0, 0.0, 1.657492800110896E9, 0.0, 2022-07-10 18:40:00.110
39.0, 33924.82953367585, 27148.09353924913, -12043.902223575382, -37909.944404357004, 12319.655694920504, 22908.191133521934, -11791.260455997046, 15642.153101224078, 0.004, 0.876, 0.436, 192.0, 0.0, 0.0, 0.0, 0.0, 0.0, 0.0, 0.0, 0.0, 0.0, 1.65749280011874E9, 0.0, 2022-07-10 18:40:00.118
40.0, 33462.751920551294, 27205.403412032538, -11880.958006496192, -37443.61995978594, 12392.321216144708, 23085.41811530806, -11706.03325438896, 16039.790635083991, 0.004, 0.876, 0.436, 192.0, 0.0, 0.0, 0.0, 0.0, 0.0, 0.0, 0.0, 0.0, 0.0, 1.657492800118761E9, 0.0, 2022-07-10 18:40:00.118
41.0, 34953.65797920919, 27324.78407916833, -11936.41268448981, -37054.7443097525, 12195.961141104835, 25962.869937762018, -11886.523590865565, 16903.037357692403, 0.004, 0.876, 0.436, 192.0, 0.0, 0.0, 0.0, 0.0, 0.0, 0.0, 0.0, 0.0, 0.0, 1.657492800125704E9, 0.0, 2022-07-10 18:40:00.125
42.0, 35550.13663174351, 27297.917282333052, -12110.935105196848, -37513.715030397776, 12098.127555623956, 26025.477173981333, -11994.974254962714, 16545.387094663038, 0.004, 0.876, 0.436, 192.0, 0.0, 0.0, 0.0, 0.0, 0.0, 0.0, 0.0, 0.0, 0.0, 1.657492800125885E9, 0.0, 2022-07-10 18:40:00.125
43.0, 34178.968868132695, 27185.577414700678, -12077.742764680715, -37929.92686390005, 12269.14075245151, 23259.739370315, -11842.691819988708, 15670.450409704497, 0.004, 0.876, 0.436, 192.0, 0.0, 0.0, 0.0, 0.0, 0.0, 0.0, 0.0, 0.0, 0.0, 1.657492800133388E9, 0.0, 2022-07-10 18:40:00.133
44.0, 33339.727919069286, 27192.327641526183, -11906.818974830983, -37575.00351369423, 12394.198762678954, 22711.026395681667, -11718.147899883736, 15841.150682109677, 0.004, 0.876, 0.436, 192.0, 0.0, 0.0, 0.0, 0.0, 0.0, 0.0, 0.0, 0.0, 0.0, 1.657492800133412E9, 0.0, 2022-07-10 18:40:00.133
45.0, 34638.61014111163, 27311.104811561683, -11898.101794493414, -37056.443042331106, 12241.581051538116, 25503.407478738725, -11849.240881114112, 16791.4127458826, 0.004, 0.876, 0.436, 192.0, 0.0, 0.0, 0.0, 0.0, 0.0, 0.0, 0.0, 0.0, 0.0, 1.657492800140557E9, 0.0, 2022-07-10 18:40:00.140
46.0, 35614.80022845271, 27301.60532016818, -12073.652395445395, -37385.639534668866, 12099.982750413747, 26328.72329100648, -11994.504868329153, 16692.39451794559, 0.004, 0.876, 0.436, 192.0, 0.0, 0.0, 0.0, 0.0, 0.0, 0.0, 0.0, 0.0, 0.0, 1.657492800149359E9, 0.0, 2022-07-10 18:40:00.149
47.0, 34465.13825239399, 27183.94573735544, -12091.82436368756, -37896.71217163947, 12226.94065891989, 23721.325245061547, -11880.689785562729, 15773.134323732178, 0.002, 0.882, 0.41200000000000003, 192.0, 0.0, 16.0, 27.0, 144.0, 12.0, 224.0, 0.0, 0.0, 0.0, 1.65749280014944E9, 0.0, 2022-07-10 18:40:00.149
48.0, 33312.27997687816, 27172.769865127786, -11925.2144605177, -37670.06548286265, 12391.762422533326, 22487.285433684046, -11724.071112164393, 15707.174325844566, 0.002, 0.882, 0.41200000000000003, 192.0, 0.0, 0.0, 0.0, 0.0, 0.0, 0.0, 0.0, 0.0, 0.0, 1.657492800156651E9, 0.0, 2022-07-10 18:40:00.156
49.0, 34296.51669222316, 27288.6413083841, -11886.456535632198, -37103.33700219834, 12267.397316383996, 24948.212498213354, -11837.081532130425, 16627.552107280746, 0.002, 0.882, 0.41200000000000003, 192.0, 0.0, 0.0, 0.0, 0.0, 0.0, 0.0, 0.0, 0.0, 0.0, 1.657492800156681E9, 0.0, 2022-07-10 18:40:00.156
50.0, 35573.6953703994, 27319.956102365984, -12057.581491182029, -37281.01101887358, 12095.043014889123, 26474.948403233102, -12023.673894843329, 16788.909350503607, 0.002, 0.882, 0.41200000000000003, 192.0, 0.0, 0.0, 0.0, 0.0, 0.0, 0.0, 0.0, 0.0, 0.0, 1.657492800163266E9, 0.0, 2022-07-10 18:40:00.163
51.0, 34734.78969750282, 27214.61233074812, -12107.403529572908, -37838.240008144385, 12199.582123706596, 24223.79246041685, -11952.014202119613, 15901.612150861283, 0.002, 0.882, 0.41200000000000003, 192.0, 0.0, 0.0, 0.0, 0.0, 0.0, 0.0, 0.0, 0.0, 0.0, 1.657492800163288E9, 0.0, 2022-07-10 18:40:00.163
52.0, 33352.66957910891, 27191.366516514605, -11955.769295188105, -37757.550210660724, 12377.144381659555, 22399.130153552313, -11749.529749098987, 15586.586664508184, 0.002, 0.882, 0.41200000000000003, 192.0, 0.0, 0.0, 0.0, 0.0, 0.0, 0.0, 0.0, 0.0, 0.0, 1.657492800171095E9, 0.0, 2022-07-10 18:40:00.171
53.0, 33989.381371662785, 27330.148497837603, -11870.765611024573, -37169.766386719515, 12307.563401170184, 24390.849398475817, -11761.286766682479, 16467.379506514015, 0.002, 0.882, 0.41200000000000003, 192.0, 0.0, 0.0, 0.0, 0.0, 0.0, 0.0, 0.0, 0.0, 0.0, 1.657492800171138E9, 0.0, 2022-07-10 18:40:00.171
54.0, 35479.9745058983, 27432.05010080935, -12015.180231950311, -37191.3805236078, 12115.606619788006, 26517.349662464818, -11942.805283404028, 16921.410491634666, 0.002, 0.882, 0.41200000000000003, 192.0, 0.0, 0.0, 0.0, 0.0, 0.0, 0.0, 0.0, 0.0, 0.0, 1.657492800178345E9, 0.0, 2022-07-10 18:40:00.178
55.0, 35004.88817750075, 27458.067531355326, -12102.553201026107, -37763.80869910821, 12174.45876293883, 24767.252775103185, -11904.315579451988, 16127.118900670876, 0.002, 0.882, 0.41200000000000003, 192.0, 0.0, 0.0, 0.0, 0.0, 0.0, 0.0, 0.0, 0.0, 0.0, 1.65749280017839E9, 0.0, 2022-07-10 18:40:00.178
56.0, 33502.3592117261, 27506.660223801166, -11976.578769275997, -37827.51117080583, 12365.789695476258, 22496.472000655176, -11718.282010350467, 15633.391217397597, 0.002, 0.882, 0.41200000000000003, 192.0, 0.0, 0.0, 0.0, 0.0, 0.0, 0.0, 0.0, 0.0, 0.0, 1.657492800185715E9, 0.0, 2022-07-10 18:40:00.185
57.0, 33715.57250208527, 27653.868812783818, -11854.001802683093, -37260.26860001905, 12360.693497740449, 23849.19957509036, -11716.002132416026, 16338.208775306795, 0.004, 0.904, 0.402, 192.0, 0.0, 32.0, 28.0, 64.0, 12.0, 144.0, 0.0, 0.0, 0.0, 1.657492800185737E9, 0.0, 2022-07-10 18:40:00.185
58.0, 35296.667849620324, 27764.68876179323, -11975.170609375313, -37116.03279304896, 12144.999163746736, 26397.477256951006, -11922.062864549502, 16941.86233781127, 0.004, 0.904, 0.402, 192.0, 0.0, 0.0, 0.0, 0.0, 0.0, 0.0, 0.0, 0.0, 0.0, 1.657492800193922E9, 0.0, 2022-07-10 18:40:00.193
59.0, 35231.55721802202, 27693.029069069515, -12108.387006328941, -37683.02949464673, 12131.722227540282, 25278.548929518336, -11952.260071308621, 16278.127286210929, 0.004, 0.904, 0.402, 192.0, 0.0, 0.0, 0.0, 0.0, 0.0, 0.0, 0.0, 0.0, 0.0, 1.657492800193952E9, 0.0, 2022-07-10 18:40:00.193
60.0, 33702.51908332337, 27610.394669818244, -12007.602990579962, -37894.02996230483, 12326.96471535739, 22699.269378098175, -11772.105010998846, 15605.183315895, 0.004, 0.904, 0.402, 192.0, 0.0, 0.0, 0.0, 0.0, 0.0, 0.0, 0.0, 0.0, 0.0, 1.657492800200758E9, 0.0, 2022-07-10 18:40:00.200
61.0, 33495.184301755944, 27690.704487646162, -11857.131046906836, -37378.28581074307, 12369.701250755938, 23348.028760913465, -11708.313132323401, 16132.326857128963, 0.004, 0.904, 0.402, 192.0, 0.0, 0.0, 0.0, 0.0, 0.0, 0.0, 0.0, 0.0, 0.0, 1.657492800200779E9, 0.0, 2022-07-10 18:40:00.200
62.0, 35062.51097470653, 27804.050183779025, -11943.900518882338, -37084.67329557816, 12165.763934345716, 26128.02697754228, -11893.184410713246, 16912.96153223056, 0.004, 0.904, 0.402, 192.0, 0.0, 0.0, 0.0, 0.0, 0.0, 0.0, 0.0, 0.0, 0.0, 1.657492800207525E9, 0.0, 2022-07-10 18:40:00.207
63.0, 35415.28855744464, 27755.725712266652, -12095.19947710031, -37593.08607495858, 12104.497802793718, 25713.93855976326, -11969.94030117277, 16441.496186434768, 0.004, 0.904, 0.402, 192.0, 0.0, 0.0, 0.0, 0.0, 0.0, 0.0, 0.0, 0.0, 0.0, 1.657492800217015E9, 0.0, 2022-07-10 18:40:00.217
64.0, 33949.595266532335, 27655.254620940046, -12032.86046181446, -37940.20866634949, 12287.424479415951, 22994.446515374962, -11805.342055003888, 15635.693447076494, 0.004, 0.904, 0.402, 192.0, 0.0, 0.0, 0.0, 0.0, 0.0, 0.0, 0.0, 0.0, 0.0, 1.65749280021705E9, 0.0, 2022-07-10 18:40:00.217
65.0, 33357.09522451105, 27704.361403508356, -11871.167942424769, -37515.3020042541, 12375.445649080952, 22934.186212323453, -11704.580390999365, 15952.037686352454, 0.004, 0.904, 0.402, 192.0, 0.0, 0.0, 0.0, 0.0, 0.0, 0.0, 0.0, 0.0, 0.0, 1.657492800223908E9, 0.0, 2022-07-10 18:40:00.223
66.0, 34786.37752370567, 27825.70902415622, -11902.460384662198, -37084.87446127826, 12208.232248810798, 25739.03956878657, -11857.91335796277, 16831.489423690968, 0.004, 0.904, 0.402, 192.0, 0.0, 0.0, 0.0, 0.0, 0.0, 0.0, 0.0, 0.0, 0.0, 1.657492800223927E9, 0.0, 2022-07-10 18:40:00.223
67.0, 35512.630404547504, 27797.92580579827, -12073.831209401038, -37492.90555630989, 12096.831154445548, 26054.623848751053, -11982.680795512295, 16570.08577228615, 0.01, 0.872, 0.38, 192.0, 0.0, 80.0, 27.0, 64.0, 11.0, 224.0, 0.0, 0.0, 0.0, 1.657492800231478E9, 0.0, 2022-07-10 18:40:00.231
68.0, 34211.53535980408, 27692.3361649914, -12062.253005773187, -37948.836439709245, 12241.335182349108, 23377.935394994664, -11858.427448085244, 15692.24336054842, 0.01, 0.872, 0.38, 192.0, 0.0, 0.0, 0.0, 0.0, 0.0, 0.0, 0.0, 0.0, 0.0, 1.657492800231527E9, 0.0, 2022-07-10 18:40:00.231
69.0, 33267.53178447864, 27699.73459240611, -11895.218419458679, -37636.56021792415, 12378.574893304694, 22607.493115364687, -11701.629960731265, 15787.03710878338, 0.01, 0.872, 0.38, 192.0, 0.0, 0.0, 0.0, 0.0, 0.0, 0.0, 0.0, 0.0, 0.0, 1.657492800237914E9, 0.0, 2022-07-10 18:40:00.237
70.0, 34453.82826969961, 27812.3650327164, -11894.056128747003, -37112.47886568056, 12228.997019409779, 25237.89110635413, -11864.887102232828, 16691.187523745004, 0.01, 0.872, 0.38, 192.0, 0.0, 0.0, 0.0, 0.0, 0.0, 0.0, 0.0, 0.0, 0.0, 1.657492800237933E9, 0.0, 2022-07-10 18:40:00.237
71.0, 35530.802372789665, 27823.205628777225, -12068.153866309389, -37387.91941260331, 12070.590206455017, 26293.519293489375, -12038.962488050758, 16666.086514721694, 0.01, 0.872, 0.38, 192.0, 0.0, 0.0, 0.0, 0.0, 0.0, 0.0, 0.0, 0.0, 0.0, 1.657492800246173E9, 0.0, 2022-07-10 18:40:00.246
72.0, 34488.942860238894, 27719.806458926974, -12076.222846057755, -37905.51875895486, 12215.943600647879, 23850.6300867355, -11871.39145986932, 15797.050690299357, 0.01, 0.872, 0.38, 192.0, 0.0, 0.0, 0.0, 0.0, 0.0, 0.0, 0.0, 0.0, 0.0, 1.657492800246227E9, 0.0, 2022-07-10 18:40:00.246
73.0, 33253.83016512754, 27691.799723124474, -11919.559469170508, -37728.6047015911, 12369.656547267026, 22420.878400907328, -11735.984591959072, 15645.170586725544, 0.01, 0.872, 0.38, 192.0, 0.0, 0.0, 0.0, 0.0, 0.0, 0.0, 0.0, 0.0, 0.0, 1.65749280025445E9, 0.0, 2022-07-10 18:40:00.254
74.0, 34120.452001148704, 27809.615768148396, -11865.289433633023, -37144.71008118511, 12272.135886208522, 24692.37443117791, -11794.09912754287, 16538.458053881892, 0.01, 0.872, 0.38, 192.0, 0.0, 0.0, 0.0, 0.0, 0.0, 0.0, 0.0, 0.0, 0.0, 1.657492800254488E9, 0.0, 2022-07-10 18:40:00.254
75.0, 35464.35063652404, 27861.114187373423, -12019.181194207811, -37268.71755942316, 12100.429785302853, 26396.091448794778, -11958.429152778286, 16777.822885253776, 0.01, 0.872, 0.38, 192.0, 0.0, 0.0, 0.0, 0.0, 0.0, 0.0, 0.0, 0.0, 0.0, 1.657492800260792E9, 0.0, 2022-07-10 18:40:00.260
76.0, 34749.988883732425, 27768.64502056182, -12076.446363502308, -37838.642339544574, 12187.445126467363, 24338.76983389495, -11884.73545130914, 15924.0085988055, 0.01, 0.872, 0.38, 192.0, 0.0, 0.0, 0.0, 0.0, 0.0, 0.0, 0.0, 0.0, 0.0, 1.657492800260826E9, 0.0, 2022-07-10 18:40:00.260
77.0, 33336.12928821198, 27731.988159655117, -11933.998696088636, -37812.021411898306, 12376.630291537082, 22395.41976397273, -11684.709690178597, 15593.716870989427, 0.006, 0.89, 0.37, 192.0, 0.0, 48.0, 27.0, 208.0, 11.0, 144.0, 0.0, 0.0, 0.0, 1.657492800267657E9, 0.0, 2022-07-10 18:40:00.267
78.0, 33820.67040451412, 27843.925695887294, -11848.637384013819, -37230.719593849135, 12318.046369319722, 24141.58274431023, -11724.294629608945, 16407.38742439597, 0.006, 0.89, 0.37, 192.0, 0.0, 0.0, 0.0, 0.0, 0.0, 0.0, 0.0, 0.0, 0.0, 1.65749280027561E9, 0.0, 2022-07-10 18:40:00.275
79.0, 35345.50641125517, 27932.1927347413, -11984.088955412979, -37184.04915142646, 12121.686294279849, 26381.004021287445, -11922.755768627618, 16880.260930092445, 0.006, 0.89, 0.37, 192.0, 0.0, 0.0, 0.0, 0.0, 0.0, 0.0, 0.0, 0.0, 0.0, 1.657492800275637E9, 0.0, 2022-07-10 18:40:00.275
80.0, 35020.08736373036, 27853.000504136147, -12087.309311307587, -37763.09344328564, 12153.246957450743, 24863.991125105757, -11913.680960378762, 16132.595078062426, 0.006, 0.89, 0.37, 192.0, 0.0, 0.0, 0.0, 0.0, 0.0, 0.0, 0.0, 0.0, 0.0, 1.65749280028428E9, 0.0, 2022-07-10 18:40:00.284
81.0, 33502.33685998164, 27794.394230174334, -11965.715821470718, -37885.24572673389, 12353.317422070197, 22499.176561734268, -11721.523013296488, 15582.429240039497, 0.006, 0.89, 0.37, 192.0, 0.0, 0.0, 0.0, 0.0, 0.0, 0.0, 0.0, 0.0, 0.0, 1.657492800284322E9, 0.0, 2022-07-10 18:40:00.284
82.0, 33576.54465157326, 27881.141350405378, -11847.408038068777, -37324.66397579479, 12350.29993656873, 23607.823086717497, -11705.496812522033, 16230.026332143108, 0.006, 0.89, 0.37, 192.0, 0.0, 0.0, 0.0, 0.0, 0.0, 0.0, 0.0, 0.0, 0.0, 1.657492800290288E9, 0.0, 2022-07-10 18:40:00.290
83.0, 35162.8479555664, 27973.409351516886, -11957.713896955716, -37125.800505375926, 12147.12257946999, 26212.04718494978, -11908.137727753847, 16884.641872005686, 0.006, 0.89, 0.37, 192.0, 0.0, 0.0, 0.0, 0.0, 0.0, 0.0, 0.0, 0.0, 0.0, 1.657492800290307E9, 0.0, 2022-07-10 18:40:00.290
84.0, 35235.0664419015, 27898.642766313886, -12090.080927620045, -37671.63010497452, 12130.045846706134, 25330.87436328821, -11940.03366709157, 16286.777411315134, 0.006, 0.89, 0.37, 192.0, 0.0, 0.0, 0.0, 0.0, 0.0, 0.0, 0.0, 0.0, 0.0, 1.657492800298266E9, 0.0, 2022-07-10 18:40:00.298
85.0, 33720.378127143165, 27809.571064659485, -12001.94799923277, -37922.64019520762, 12324.327209511663, 22728.863087757003, -11756.391734646766, 15586.497257530364, 0.006, 0.89, 0.37, 192.0, 0.0, 0.0, 0.0, 0.0, 0.0, 0.0, 0.0, 0.0, 0.0, 1.657492800298293E9, 0.0, 2022-07-10 18:40:00.298
86.0, 33385.81721613613, 27862.879975185395, -11861.422581842255, -37442.56942779654, 12380.9218264725, 23139.554040378815, -11691.974007126571, 16034.672085603725, 0.006, 0.89, 0.37, 192.0, 0.0, 0.0, 0.0, 0.0, 0.0, 0.0, 0.0, 0.0, 0.0, 1.657492800306215E9, 0.0, 2022-07-10 18:40:00.306
87.0, 34899.52205413843, 27972.336467783032, -11932.12114955439, -37100.02894401896, 12179.242036252266, 25899.54744572013, -11872.799619770005, 16838.306705749834, 0.004, 0.88, 0.37, 192.0, 0.0, 32.0, 27.0, 128.0, 11.0, 144.0, 0.0, 0.0, 0.0, 1.657492800306234E9, 0.0, 2022-07-10 18:40:00.306
88.0, 35374.38486509143, 27935.52314466514, -12091.1538113539, -37571.9189729594, 12096.58528525654, 25733.004597783638, -11959.077353367491, 16445.027762058708, 0.004, 0.88, 0.37, 192.0, 0.0, 0.0, 0.0, 0.0, 0.0, 0.0, 0.0, 0.0, 0.0, 1.657492800313009E9, 0.0, 2022-07-10 18:40:00.313
89.0, 33964.72739752858, 27822.915056099304, -12032.793406581093, -37943.2038001065, 12280.182514212433, 23050.348228257684, -11792.936836831193, 15636.319295921243, 0.004, 0.88, 0.37, 192.0, 0.0, 0.0, 0.0, 0.0, 0.0, 0.0, 0.0, 0.0, 0.0, 1.657492800313193E9, 0.0, 2022-07-10 18:40:00.313
90.0, 33244.3977289674, 27844.46213775422, -11881.315634407478, -37561.68187399887, 12377.814933993213, 22737.89319251695, -11687.21308555759, 15869.649156290194, 0.004, 0.88, 0.37, 192.0, 0.0, 0.0, 0.0, 0.0, 0.0, 0.0, 0.0, 0.0, 0.0, 1.657492800320944E9, 0.0, 2022-07-10 18:40:00.320
91.0, 34608.077658185684, 27953.605705929484, -11917.659570891807, -37099.17957772966, 12199.448013239862, 25484.497902929535, -11853.621823027352, 16756.856948954697, 0.004, 0.88, 0.37, 192.0, 0.0, 0.0, 0.0, 0.0, 0.0, 0.0, 0.0, 0.0, 0.0, 1.65749280032102E9, 0.0, 2022-07-10 18:40:00.321
92.0, 35456.773395153694, 27932.751528352685, -12090.48325902024, -37467.53632635312, 12080.402622270898, 26048.812395192672, -11981.250283867155, 16577.79712412323, 0.004, 0.88, 0.37, 192.0, 0.0, 0.0, 0.0, 0.0, 0.0, 0.0, 0.0, 0.0, 0.0, 1.657492800327902E9, 0.0, 2022-07-10 18:40:00.327
93.0, 34251.16500272334, 27829.955855602726, -12071.260758788678, -37930.91034065608, 12234.763769479248, 23479.524073544035, -11839.361410064867, 15714.192773603532, 0.004, 0.88, 0.37, 192.0, 0.0, 0.0, 0.0, 0.0, 0.0, 0.0, 0.0, 0.0, 0.0, 1.657492800335877E9, 0.0, 2022-07-10 18:40:00.335
94.0, 33213.75348731917, 27833.50978297112, -11907.042492275536, -37665.59513397159, 12377.725527015393, 22497.45547741121, -11690.632902459252, 15724.519279541884, 0.004, 0.88, 0.37, 192.0, 0.0, 0.0, 0.0, 0.0, 0.0, 0.0, 0.0, 0.0, 0.0, 1.657492800335898E9, 0.0, 2022-07-10 18:40:00.335
95.0, 34290.057038075574, 27949.314170994065, -11889.719890322673, -37122.44774370763, 12238.161234636455, 24988.870321377555, -11815.825023153428, 16622.634723500578, 0.004, 0.88, 0.37, 192.0, 0.0, 0.0, 0.0, 0.0, 0.0, 0.0, 0.0, 0.0, 0.0, 1.657492800342438E9, 0.0, 2022-07-10 18:40:00.342
96.0, 35461.26609578921, 27971.73297068274, -12067.125686064444, -37351.37431041888, 12061.448342972797, 26257.756502360884, -12018.71180757425, 16677.73177358291, 0.004, 0.88, 0.37, 192.0, 0.0, 0.0, 0.0, 0.0, 0.0, 0.0, 0.0, 0.0, 0.0, 1.657492800342458E9, 0.0, 2022-07-10 18:40:00.342
97.0, 34546.6550644225, 27863.394065307864, -12098.596942257518, -37889.73842736941, 12179.644367652461, 23965.763922424787, -11901.566314883985, 15816.988446353489, -0.002, 0.862, 0.34600000000000003, 192.0, 255.0, 240.0, 26.0, 240.0, 10.0, 208.0, 0.0, 0.0, 0.0, 1.657492800350517E9, 0.0, 2022-07-10 18:40:00.350
98.0, 33254.63482792793, 27852.195841335757, -11931.942335598747, -37760.52299267328, 12364.001555919833, 22352.05737972944, -11693.69509144963, 15604.669225772528, -0.002, 0.862, 0.34600000000000003, 192.0, 0.0, 0.0, 0.0, 0.0, 0.0, 0.0, 0.0, 0.0, 0.0, 1.657492800350578E9, 0.0, 2022-07-10 18:40:00.350
99.0, 33978.3172581574, 27969.877775892946, -11869.268044146067, -37170.63810475327, 12277.500304877794, 24421.091308723844, -11778.341147701878, 16447.48645394879, -0.002, 0.862, 0.34600000000000003, 192.0, 0.0, 0.0, 0.0, 0.0, 0.0, 0.0, 0.0, 0.0, 0.0, 1.657492800358524E9, 0.0, 2022-07-10 18:40:00.358
100.0, 35394.344972890016, 28013.73189851426, -12036.682610116317, -37234.83231482891, 12081.855485660493, 26317.770936223384, -11970.432039550788, 16761.997850179418, -0.002, 0.862, 0.34600000000000003, 192.0, 0.0, 0.0, 0.0, 0.0, 0.0, 0.0, 0.0, 0.0, 0.0, 1.657492800358544E9, 0.0, 2022-07-10 18:40:00.358
101.0, 34804.48243671447, 27910.2880251751, -12105.01189291619, -37802.76778969381, 12153.917509784402, 24441.87843106728, -11902.415681173288, 15947.768503161491, -0.002, 0.862, 0.34600000000000003, 192.0, 0.0, 0.0, 0.0, 0.0, 0.0, 0.0, 0.0, 0.0, 0.0, 1.657492800365904E9, 0.0, 2022-07-10 18:40:00.365
102.0, 33340.2196574473, 27863.438768796776, -11951.857739908426, -37805.159426350525, 12363.710983241914, 22354.94075476417, -11716.248001605034, 15529.567364402696, -0.002, 0.862, 0.34600000000000003, 192.0, 0.0, 0.0, 0.0, 0.0, 0.0, 0.0, 0.0, 0.0, 0.0, 1.657492800365951E9, 0.0, 2022-07-10 18:40:00.365
103.0, 33686.8505104602, 27968.38020901444, -11852.548939293498, -37230.7866490825, 12327.29999152422, 23889.522122087732, -11722.864117963805, 16298.243856220706, -0.002, 0.862, 0.34600000000000003, 192.0, 0.0, 0.0, 0.0, 0.0, 0.0, 0.0, 0.0, 0.0, 0.0, 1.657492800373194E9, 0.0, 2022-07-10 18:40:00.373
104.0, 35245.370596095396, 28061.385817692975, -11981.2279321227, -37137.669281681694, 12118.959381456301, 26263.63501115263, -11917.592515658442, 16855.316383280326, -0.002, 0.862, 0.34600000000000003, 192.0, 0.0, 0.0, 0.0, 0.0, 0.0, 0.0, 0.0, 0.0, 0.0, 1.657492800373265E9, 0.0, 2022-07-10 18:40:00.373
105.0, 35051.424509456694, 28003.74066874274, -12080.492029248719, -37687.432788304424, 12142.249899178732, 24974.520501437248, -11911.825765588972, 16172.96232854871, -0.002, 0.862, 0.34600000000000003, 192.0, 0.0, 0.0, 0.0, 0.0, 0.0, 0.0, 0.0, 0.0, 0.0, 1.657492800381328E9, 0.0, 2022-07-10 18:40:00.381
106.0, 33516.9101973665, 27937.601856899484, -11963.45829528073, -37841.235141901394, 12344.53318649926, 22541.2201930547, -11719.332542339867, 15585.111449374135, -0.002, 0.862, 0.34600000000000003, 192.0, 0.0, 0.0, 0.0, 0.0, 0.0, 0.0, 0.0, 0.0, 0.0, 1.65749280038137E9, 0.0, 2022-07-10 18:40:00.381
107.0, 33442.92592321944, 28017.598750305027, -11841.641287999308, -37322.69702228272, 12359.039468650755, 23403.528142395993, -11693.60568447181, 16162.457008654716, -0.002, 0.932, 0.34, 192.0, 255.0, 240.0, 29.0, 32.0, 10.0, 160.0, 0.0, 0.0, 0.0, 1.657492800388548E9, 0.0, 2022-07-10 18:40:00.388
108.0, 35032.22436096959, 28126.719966735836, -11943.229966548679, -37089.16599621368, 12157.136160985967, 26073.935755960436, -11885.629521087352, 16871.700211966065, -0.002, 0.932, 0.34, 192.0, 0.0, 0.0, 0.0, 0.0, 0.0, 0.0, 0.0, 0.0, 0.0, 1.657492800395154E9, 0.0, 2022-07-10 18:40:00.395
109.0, 35260.99446546966, 28090.17486455141, -12081.542561238119, -37593.64486856996, 12117.283000622154, 25463.17433871917, -11940.503053725131, 16360.448761039826, -0.002, 0.932, 0.34, 192.0, 0.0, 0.0, 0.0, 0.0, 0.0, 0.0, 0.0, 0.0, 0.0, 1.657492800395194E9, 0.0, 2022-07-10 18:40:00.395
110.0, 33756.49854618294, 28006.042898421634, -11996.293007885577, -37877.959058041466, 12317.711093152893, 22834.27391460823, -11748.725086298597, 15628.831461528714, -0.002, 0.932, 0.34, 192.0, 0.0, 0.0, 0.0, 0.0, 0.0, 0.0, 0.0, 0.0, 0.0, 1.657492800402866E9, 0.0, 2022-07-10 18:40:00.402
111.0, 33261.832089642536, 28062.30223921564, -11841.641287999308, -37427.57140726702, 12389.057861454232, 22990.44555311746, -11664.235492257536, 16006.866515501324, -0.002, 0.932, 0.34, 192.0, 0.0, 0.0, 0.0, 0.0, 0.0, 0.0, 0.0, 0.0, 0.0, 1.657492800402912E9, 0.0, 2022-07-10 18:40:00.402
112.0, 34772.02770376536, 28195.026897791256, -11906.193125986234, -37053.850239974294, 12188.875638112502, 25770.980211613205, -11843.228261855635, 16837.323228993802, -0.002, 0.932, 0.34, 192.0, 0.0, 0.0, 0.0, 0.0, 0.0, 0.0, 0.0, 0.0, 0.0, 1.657492800410788E9, 0.0, 2022-07-10 18:40:00.410
113.0, 35400.424647381864, 28163.80151078719, -12064.711697663271, -37491.67621036484, 12102.486145792742, 25864.41050343639, -11941.218309547701, 16514.653446036988, -0.002, 0.932, 0.34, 192.0, 0.0, 0.0, 0.0, 0.0, 0.0, 0.0, 0.0, 0.0, 0.0, 1.657492800410808E9, 0.0, 2022-07-10 18:40:00.410
114.0, 34035.40361349626, 28035.860125525014, -12028.52422339013, -37896.443950706, 12269.006641984779, 23225.496497809472, -11792.981540320105, 15687.974177357457, -0.002, 0.932, 0.34, 192.0, 0.0, 0.0, 0.0, 0.0, 0.0, 0.0, 0.0, 0.0, 0.0, 1.657492800418004E9, 0.0, 2022-07-10 18:40:00.418
115.0, 33191.42409460832, 28048.712378586817, -11863.68010803224, -37559.223182108784, 12386.822687008702, 22671.01677310667, -11665.21896901357, 15844.928126922623, -0.002, 0.932, 0.34, 192.0, 0.0, 0.0, 0.0, 0.0, 0.0, 0.0, 0.0, 0.0, 0.0, 1.657492800418051E9, 0.0, 2022-07-10 18:40:00.418
116.0, 34492.943822496396, 28185.25918546429, -11873.224302914656, -37074.36914138426, 12232.081560144612, 25318.96088349353, -11798.502421200565, 16730.459538752977, -0.002, 0.932, 0.34, 192.0, 0.0, 0.0, 0.0, 0.0, 0.0, 0.0, 0.0, 0.0, 0.0, 1.657492800425929E9, 0.0, 2022-07-10 18:40:00.425
117.0, 35494.97252642781, 28188.589595388126, -12047.970241066247, -37394.44612198426, 12093.29957882161, 26133.145527022545, -11937.88789962386, 16641.991334198872, -0.002, 0.92, 0.326, 192.0, 255.0, 240.0, 28.0, 192.0, 10.0, 48.0, 0.0, 0.0, 0.0, 1.657492800425948E9, 0.0, 2022-07-10 18:40:00.425
118.0, 34358.52043134218, 28063.710399116328, -12053.37936322443, -37888.33026746872, 12229.75697872126, 23649.531441871102, -11829.191366337702, 15766.473503884496, -0.002, 0.92, 0.326, 192.0, 0.0, 0.0, 0.0, 0.0, 0.0, 0.0, 0.0, 0.0, 0.0, 1.657492800433502E9, 0.0, 2022-07-10 18:40:00.433
119.0, 33194.21806266523, 28043.012683750712, -11889.764593811584, -37673.4405962754, 12384.83338175218, 22432.993046402105, -11670.114001049282, 15694.63499720514, -0.002, 0.92, 0.326, 192.0, 0.0, 0.0, 0.0, 0.0, 0.0, 0.0, 0.0, 0.0, 0.0, 1.657492800433557E9, 0.0, 2022-07-10 18:40:00.433
120.0, 34193.74337121766, 28171.24464169081, -11853.644174771807, -37117.30684248291, 12272.605272842084, 24789.068077691565, -11762.896092283261, 16580.211112524405, -0.002, 0.92, 0.326, 192.0, 0.0, 0.0, 0.0, 0.0, 0.0, 0.0, 0.0, 0.0, 0.0, 1.657492800441771E9, 0.0, 2022-07-10 18:40:00.441
121.0, 35503.26502362073, 28210.762525887792, -12027.38428442291, -37292.99155390162, 12086.527000251652, 26290.188883565534, -11944.526367727085, 16732.985285876428, -0.002, 0.92, 0.326, 192.0, 0.0, 0.0, 0.0, 0.0, 0.0, 0.0, 0.0, 0.0, 0.0, 1.657492800441815E9, 0.0, 2022-07-10 18:40:00.441
122.0, 34670.10374904916, 28094.444047742374, -12071.528979722141, -37845.34786288117, 12184.74056538827, 24125.66830225805, -11870.2515209021, 15878.90277849469, -0.002, 0.92, 0.326, 192.0, 0.0, 0.0, 0.0, 0.0, 0.0, 0.0, 0.0, 0.0, 0.0, 1.657492800447659E9, 0.0, 2022-07-10 18:40:00.447
123.0, 33275.28783980463, 28029.60163707753, -11926.197937273733, -37774.135205046565, 12354.189140103954, 22346.111815704324, -11707.955504412115, 15583.613882495629, -0.002, 0.92, 0.326, 192.0, 0.0, 0.0, 0.0, 0.0, 0.0, 0.0, 0.0, 0.0, 0.0, 1.657492800447679E9, 0.0, 2022-07-10 18:40:00.447
124.0, 33901.96369909808, 28153.56441182666, -11841.127197876835, -37189.324163117904, 12292.811249829681, 24234.70011171104, -11749.775618287995, 16391.7188515328, -0.002, 0.92, 0.326, 192.0, 0.0, 0.0, 0.0, 0.0, 0.0, 0.0, 0.0, 0.0, 0.0, 1.657492800455397E9, 0.0, 2022-07-10 18:40:00.455
125.0, 35433.81815359809, 28249.74396821785, -11982.2784641121, -37188.83242473989, 12095.288884078132, 26311.1101163757, -11928.544870441541, 16789.22227492598, -0.002, 0.92, 0.326, 192.0, 0.0, 0.0, 0.0, 0.0, 0.0, 0.0, 0.0, 0.0, 0.0, 1.65749280046319E9, 0.0, 2022-07-10 18:40:00.463
126.0, 34983.631668523754, 28158.370036884553, -12075.462886746274, -37760.008902550806, 12132.705704296315, 24642.530041042573, -11906.483698664153, 16012.946189993167, -0.002, 0.92, 0.326, 192.0, 0.0, 0.0, 0.0, 0.0, 0.0, 0.0, 0.0, 0.0, 0.0, 1.65749280046321E9, 0.0, 2022-07-10 18:40:00.463
127.0, 33444.98228370932, 28081.59179468057, -11945.040457849558, -37829.232255128896, 12329.691628180937, 22412.116517080845, -11720.718350496096, 15524.806442833717, -0.004, 0.926, 0.304, 192.0, 255.0, 224.0, 28.0, 240.0, 9.0, 128.0, 0.0, 0.0, 0.0, 1.657492800471369E9, 0.0, 2022-07-10 18:40:00.471
128.0, 33653.747576921895, 28196.256243736298, -11824.653962213275, -37258.189887784705, 12329.758683414304, 23701.521599474145, -11711.12945212477, 16216.995265125664, -0.004, 0.926, 0.304, 192.0, 0.0, 0.0, 0.0, 0.0, 0.0, 0.0, 0.0, 0.0, 0.0, 1.657492800471413E9, 0.0, 2022-07-10 18:40:00.471
129.0, 35309.00601255966, 28306.606806112148, -11951.276594552588, -37103.91814755418, 12111.605657530507, 26210.437859348996, -11915.200879001723, 16827.80138585584, -0.004, 0.926, 0.304, 192.0, 0.0, 0.0, 0.0, 0.0, 0.0, 0.0, 0.0, 0.0, 0.0, 1.657492800477658E9, 0.0, 2022-07-10 18:40:00.477
130.0, 35269.64459057386, 28226.766374917792, -12070.143171565911, -37662.80116591468, 12113.39379708693, 25136.503593504858, -11929.416588475298, 16191.670738657802, -0.004, 0.926, 0.304, 192.0, 0.0, 0.0, 0.0, 0.0, 0.0, 0.0, 0.0, 0.0, 0.0, 1.657492800477677E9, 0.0, 2022-07-10 18:40:00.477
131.0, 33672.2995248198, 28128.686920247907, -11957.736248700172, -37866.51496488035, 12307.943380825924, 22596.89838849287, -11737.28099313748, 15542.30785874222, -0.004, 0.926, 0.304, 192.0, 0.0, 0.0, 0.0, 0.0, 0.0, 0.0, 0.0, 0.0, 0.0, 1.657492800485823E9, 0.0, 2022-07-10 18:40:00.485
132.0, 33439.17083015094, 28205.19694151842, -11814.260401041556, -37357.453984910724, 12344.644945221538, 23217.06989014982, -11691.974007126571, 16055.79448411399, -0.004, 0.926, 0.304, 192.0, 0.0, 0.0, 0.0, 0.0, 0.0, 0.0, 0.0, 0.0, 0.0, 1.65749280048587E9, 0.0, 2022-07-10 18:40:00.485
133.0, 35071.31756202192, 28353.1431380681, -11896.246599703623, -37057.42651908714, 12145.245032935743, 25953.906888235437, -11883.103773963901, 16820.76058635242, -0.004, 0.926, 0.304, 192.0, 0.0, 0.0, 0.0, 0.0, 0.0, 0.0, 0.0, 0.0, 0.0, 1.65749280049361E9, 0.0, 2022-07-10 18:40:00.493
134.0, 35457.48865097626, 28314.87695156061, -12047.277336988132, -37553.32232157258, 12084.001253128203, 25583.784351800008, -11960.396106290355, 16373.613938524002, -0.004, 0.926, 0.304, 192.0, 0.0, 0.0, 0.0, 0.0, 0.0, 0.0, 0.0, 0.0, 0.0, 1.65749280049363E9, 0.0, 2022-07-10 18:40:00.493
135.0, 33935.22309484758, 28194.691621624428, -11977.674004754306, -37888.88906108011, 12271.308871663676, 22921.982159850857, -11784.42082219372, 15609.072519430223, -0.004, 0.926, 0.304, 192.0, 0.0, 0.0, 0.0, 0.0, 0.0, 0.0, 0.0, 0.0, 0.0, 1.657492800501099E9, 0.0, 2022-07-10 18:40:00.501
136.0, 33296.365534825985, 28241.78674719176, -11814.975656864126, -37466.865774019454, 12362.526340785784, 22846.723836269837, -11684.039137844937, 15919.784119103448, -0.004, 0.926, 0.304, 192.0, 0.0, 0.0, 0.0, 0.0, 0.0, 0.0, 0.0, 0.0, 0.0, 1.657492800501132E9, 0.0, 2022-07-10 18:40:00.501
137.0, 34801.0626198128, 28395.007955432888, -11851.274889859546, -37038.13696362221, 12187.60158867855, 25626.4985354541, -11841.529529277032, 16793.29029241685, -0.002, 0.97, 0.3, 192.0, 255.0, 240.0, 30.0, 80.0, 9.0, 96.0, 0.0, 0.0, 0.0, 1.657492800508766E9, 0.0, 2022-07-10 18:40:00.508
138.0, 35614.844931941625, 28385.061429150275, -12019.360008163454, -37436.06507016004, 12077.139267580424, 26000.353813213565, -11968.330975571987, 16557.814664580186, -0.002, 0.97, 0.3, 192.0, 0.0, 0.0, 0.0, 0.0, 0.0, 0.0, 0.0, 0.0, 0.0, 1.657492800508826E9, 0.0, 2022-07-10 18:40:00.508
139.0, 34266.40889244186, 28242.457299525417, -12004.049063211569, -37890.7442558699, 12233.42266481193, 23372.056886202918, -11830.465415771654, 15700.021767618868, -0.002, 0.97, 0.3, 192.0, 0.0, 0.0, 0.0, 0.0, 0.0, 0.0, 0.0, 0.0, 0.0, 1.657492800515361E9, 0.0, 2022-07-10 18:40:00.515
140.0, 33247.974008080244, 28236.57879073367, -11843.652945000285, -37602.18323495188, 12363.68863149746, 22561.962611909225, -11688.688300691641, 15770.630928353183, -0.002, 0.97, 0.3, 192.0, 0.0, 0.0, 0.0, 0.0, 0.0, 0.0, 0.0, 0.0, 0.0, 1.657492800524837E9, 0.0, 2022-07-10 18:40:00.524
141.0, 34497.70474406538, 28387.743638484913, -11837.729732719628, -37076.716074552074, 12222.55971700665, 25150.585192511702, -11818.686046443707, 16667.159398455547, -0.002, 0.97, 0.3, 192.0, 0.0, 0.0, 0.0, 0.0, 0.0, 0.0, 0.0, 0.0, 0.0, 1.657492800524867E9, 0.0, 2022-07-10 18:40:00.524
142.0, 35672.46772914741, 28403.881597981646, -12020.321133175032, -37349.496763884636, 12065.203436041289, 26239.428071907532, -11983.820734479516, 16659.224529173916, -0.002, 0.97, 0.3, 192.0, 0.0, 0.0, 0.0, 0.0, 0.0, 0.0, 0.0, 0.0, 0.0, 1.657492800530815E9, 0.0, 2022-07-10 18:40:00.530
143.0, 34586.57528001968, 28275.470826085908, -12040.750627607184, -37877.534374896815, 12190.59672243556, 23824.299731767147, -11870.944424980215, 15780.085716257778, -0.002, 0.97, 0.3, 192.0, 0.0, 0.0, 0.0, 0.0, 0.0, 0.0, 0.0, 0.0, 0.0, 1.657492800530834E9, 0.0, 2022-07-10 18:40:00.530
144.0, 33280.58520324054, 28249.34163681765, -11874.16307618178, -37702.74373325631, 12374.64098628056, 22380.153522509758, -11702.233457831557, 15640.163795967555, -0.002, 0.97, 0.3, 192.0, 0.0, 0.0, 0.0, 0.0, 0.0, 0.0, 0.0, 0.0, 0.0, 1.657492800538124E9, 0.0, 2022-07-10 18:40:00.538
145.0, 34175.884327397864, 28381.70866748198, -11824.564555235453, -37130.20379903362, 12269.006641984779, 24599.078249821458, -11787.19243850618, 16504.952788943385, -0.002, 0.97, 0.3, 192.0, 0.0, 0.0, 0.0, 0.0, 0.0, 0.0, 0.0, 0.0, 0.0, 1.65749280053816E9, 0.0, 2022-07-10 18:40:00.538
146.0, 35616.83423719814, 28427.95442676001, -11983.172533890312, -37236.35223345187, 12086.124668851457, 26336.456994588018, -11968.219216849711, 16748.69856222851, -0.002, 0.97, 0.3, 192.0, 0.0, 0.0, 0.0, 0.0, 0.0, 0.0, 0.0, 0.0, 0.0, 1.657492800546023E9, 0.0, 2022-07-10 18:40:00.546
147.0, 34880.88069926271, 28301.957643265447, -12045.332735220521, -37805.71821996191, 12167.641480879962, 24304.99634802298, -11952.12596084189, 15888.491676866017, -0.002, 0.97, 0.3, 192.0, 0.0, 0.0, 28.0, 224.0, 8.0, 224.0, 0.0, 0.0, 0.0, 1.657492800546043E9, 0.0, 2022-07-10 18:40:00.546
148.0, 33372.31676248512, 28234.030691865766, -11895.978378770158, -37777.398559737034, 12359.307689584219, 22322.307207859423, -11743.427722862689, 15517.475070652376, -0.002, 0.97, 0.3, 192.0, 0.0, 0.0, 0.0, 0.0, 0.0, 0.0, 0.0, 0.0, 0.0, 1.657492800554208E9, 0.0, 2022-07-10 18:40:00.554
149.0, 33878.20379474208, 28352.718454923448, -11808.516002716542, -37191.715799774625, 12307.943380825924, 24038.272981437804, -11699.394786285733, 16333.38079850445, -0.002, 0.97, 0.3, 192.0, 0.0, 0.0, 0.0, 0.0, 0.0, 0.0, 0.0, 0.0, 0.0, 1.657492800554236E9, 0.0, 2022-07-10 18:40:00.554
150.0, 35514.41854410393, 28457.123453274187, -11957.333917299977, -37149.51570624301, 12109.951628440813, 26300.895369159625, -11898.995864271625, 16818.503060162435, -0.002, 0.97, 0.3, 192.0, 0.0, 0.0, 0.0, 0.0, 0.0, 0.0, 0.0, 0.0, 0.0, 1.657492800562249E9, 0.0, 2022-07-10 18:40:00.562
151.0, 35190.60882217989, 28353.74663516839, -12056.754476637183, -37721.74271604332, 12146.317916669597, 24809.832848290545, -11883.126125708357, 16080.694327437202, -0.002, 0.97, 0.3, 192.0, 0.0, 0.0, 0.0, 0.0, 0.0, 0.0, 0.0, 0.0, 0.0, 1.657492800562346E9, 0.0, 2022-07-10 18:40:00.562
152.0, 33573.79538700526, 28253.186136863966, -11921.235850004656, -37832.31679586373, 12355.0161546488, 22421.90658115227, -11686.810754157395, 15535.64703889454, -0.002, 0.97, 0.3, 192.0, 0.0, 0.0, 0.0, 0.0, 0.0, 0.0, 0.0, 0.0, 0.0, 1.657492800570154E9, 0.0, 2022-07-10 18:40:00.570
153.0, 33618.36476544914, 28342.146079796086, -11802.972770091626, -37284.02850437504, 12348.176520845476, 23485.491989313603, -11691.325806537368, 16161.093552242943, -0.002, 0.97, 0.3, 192.0, 0.0, 0.0, 0.0, 0.0, 0.0, 0.0, 0.0, 0.0, 0.0, 1.657492800570192E9, 0.0, 2022-07-10 18:40:00.570
154.0, 35295.39380018637, 28458.598668408238, -11923.225155261178, -37081.119368209766, 12133.711532796804, 26109.07269824418, -11899.420547416275, 16808.13185073517, -0.002, 0.97, 0.3, 192.0, 0.0, 0.0, 0.0, 0.0, 0.0, 0.0, 0.0, 0.0, 0.0, 1.657492800578603E9, 0.0, 2022-07-10 18:40:00.578
155.0, 35395.28374615714, 28373.930260411533, -12054.988688825213, -37611.034525756186, 12119.205250645311, 25267.52951950187, -11918.21836450319, 16222.426739028304, -0.002, 0.97, 0.3, 192.0, 0.0, 0.0, 0.0, 0.0, 0.0, 0.0, 0.0, 0.0, 0.0, 1.657492800584727E9, 0.0, 2022-07-10 18:40:00.584
156.0, 33797.826921680804, 28255.890697943058, -11957.266862066612, -37846.554857081755, 12318.001665830812, 22651.883679852926, -11725.926306954183, 15526.907506812515, -0.002, 0.97, 0.3, 192.0, 0.0, 0.0, 0.0, 0.0, 0.0, 0.0, 0.0, 0.0, 0.0, 1.657492800584765E9, 0.0, 2022-07-10 18:40:00.584
157.0, 33434.47696381533, 28325.628140643614, -11808.270133527534, -37359.51034540062, 12376.138553159066, 23032.04214954879, -11653.39489619671, 15976.848122697846, -0.008, 0.926, 0.27, 192.0, 255.0, 192.0, 28.0, 240.0, 8.0, 112.0, 0.0, 0.0, 0.0, 1.657492800591184E9, 0.0, 2022-07-10 18:40:00.591
158.0, 35089.333068052896, 28476.88239537268, -11887.864695532882, -37019.65207095767, 12180.046699052657, 25840.02475023565, -11847.653907257785, 16782.673213800575, -0.008, 0.926, 0.27, 192.0, 0.0, 0.0, 0.0, 0.0, 0.0, 0.0, 0.0, 0.0, 0.0, 1.657492800591229E9, 0.0, 2022-07-10 18:40:00.591
159.0, 35662.54355460925, 28435.933999530556, -12052.15001727939, -37484.7471695837, 12089.142154352923, 25743.018179299615, -11949.063771851514, 16394.33400563407, -0.008, 0.926, 0.27, 192.0, 0.0, 0.0, 0.0, 0.0, 0.0, 0.0, 0.0, 0.0, 0.0, 1.657492800598271E9, 0.0, 2022-07-10 18:40:00.598
160.0, 34167.59183020495, 28315.100469005167, -11990.36979560492, -37849.706453049956, 12266.212673927865, 23035.372559472627, -11775.770697089518, 15576.327213803199, -0.008, 0.926, 0.27, 192.0, 0.0, 0.0, 0.0, 0.0, 0.0, 0.0, 0.0, 0.0, 0.0, 1.65749280059829E9, 0.0, 2022-07-10 18:40:00.598
161.0, 33382.55386144565, 28351.600867700683, -11827.246764570089, -37466.530497852626, 12373.836323480169, 22679.778656933147, -11673.064431317382, 15795.508419931939, -0.008, 0.926, 0.27, 192.0, 0.0, 0.0, 0.0, 0.0, 0.0, 0.0, 0.0, 0.0, 0.0, 1.657492800606308E9, 0.0, 2022-07-10 18:40:00.606
162.0, 34847.88952444667, 28502.631604985192, -11854.337078849921, -37013.39358251019, 12210.84740291207, 25449.89740251272, -11819.513060988553, 16680.905721295563, -0.008, 0.926, 0.27, 192.0, 0.0, 0.0, 0.0, 0.0, 0.0, 0.0, 0.0, 0.0, 0.0, 1.657492800606332E9, 0.0, 2022-07-10 18:40:00.606
163.0, 35819.31869021877, 28495.63550897068, -12029.418293168343, -37371.22265949519, 12067.77388665365, 26089.291404401232, -11947.163873572812, 16537.340466659127, -0.008, 0.926, 0.27, 192.0, 0.0, 0.0, 0.0, 0.0, 0.0, 0.0, 0.0, 0.0, 0.0, 1.657492800612786E9, 0.0, 2022-07-10 18:40:00.612
164.0, 34559.149689573016, 28356.115920080654, -12013.101519715969, -37827.06413591673, 12226.761844964249, 23506.279111657037, -11811.868764384839, 15671.120962038156, -0.008, 0.926, 0.27, 192.0, 0.0, 0.0, 0.0, 0.0, 0.0, 0.0, 0.0, 0.0, 0.0, 1.657492800612806E9, 0.0, 2022-07-10 18:40:00.612
165.0, 33448.37974886653, 28350.684446178013, -11843.205910111179, -37565.928705445374, 12386.733280030881, 22472.242709665625, -11650.891500817717, 15685.537837211828, -0.008, 0.926, 0.27, 192.0, 0.0, 0.0, 0.0, 0.0, 0.0, 0.0, 0.0, 0.0, 0.0, 1.657492800621164E9, 0.0, 2022-07-10 18:40:00.621
166.0, 34624.66265257152, 28517.383756325693, -11823.603430223875, -37028.615120484246, 12250.074714431134, 24989.876149878044, -11754.670650323707, 16596.974920865887, -0.008, 0.926, 0.27, 192.0, 0.0, 0.0, 0.0, 0.0, 0.0, 0.0, 0.0, 0.0, 0.0, 1.657492800621318E9, 0.0, 2022-07-10 18:40:00.621
167.0, 35931.16681947313, 28543.490593849492, -12005.27840915661, -37258.30164650699, 12066.566892453062, 26312.428869298565, -11933.082274565968, 16668.992241500884, -0.002, 0.9460000000000001, 0.268, 192.0, 255.0, 240.0, 29.0, 144.0, 8.0, 96.0, 0.0, 0.0, 0.0, 1.657492800629241E9, 0.0, 2022-07-10 18:40:00.629
168.0, 34954.3508832873, 28399.00891769039, -12026.534918133608, -37783.52293771779, 12196.74345216077, 23991.446076803935, -11827.224412825635, 15802.705681646548, -0.002, 0.9460000000000001, 0.268, 192.0, 0.0, 0.0, 0.0, 0.0, 0.0, 0.0, 0.0, 0.0, 0.0, 1.657492800629289E9, 0.0, 2022-07-10 18:40:00.629
169.0, 33542.57000000119, 28349.075120577232, -11856.572253295453, -37648.987787841295, 12377.412602593018, 22337.126414433293, -11637.078122744337, 15584.865580185126, -0.002, 0.9460000000000001, 0.268, 192.0, 0.0, 0.0, 0.0, 0.0, 0.0, 0.0, 0.0, 0.0, 0.0, 1.657492800635218E9, 0.0, 2022-07-10 18:40:00.635
170.0, 34315.582730243535, 28486.650107699646, -11803.017473580538, -37081.9016792657, 12293.191229485421, 24420.711329068105, -11720.450129562632, 16420.887878046975, -0.002, 0.9460000000000001, 0.268, 192.0, 0.0, 0.0, 0.0, 0.0, 0.0, 0.0, 0.0, 0.0, 0.0, 1.657492800642654E9, 0.0, 2022-07-10 18:40:00.642
171.0, 35860.11062384971, 28557.70630332307, -11970.722612228707, -37161.4738895266, 12086.996386885214, 26370.163425226623, -11929.93067859777, 16728.202012562993, -0.002, 0.9460000000000001, 0.268, 192.0, 0.0, 0.0, 0.0, 0.0, 0.0, 0.0, 0.0, 0.0, 0.0, 1.657492800642675E9, 0.0, 2022-07-10 18:40:00.642
172.0, 35260.54743058055, 28429.00495874941, -12041.532938663118, -37727.08478296814, 12150.676506838383, 24507.74902197707, -11883.01436698608, 15918.845345836324, -0.002, 0.9460000000000001, 0.268, 192.0, 0.0, 0.0, 0.0, 0.0, 0.0, 0.0, 0.0, 0.0, 0.0, 1.657492800650527E9, 0.0, 2022-07-10 18:40:00.650
173.0, 33677.39572255561, 28341.743748395893, -11892.200933957212, -37734.37145166057, 12350.121122613087, 22353.443187885667, -11683.189771555635, 15488.820134260672, -0.002, 0.9460000000000001, 0.268, 192.0, 0.0, 0.0, 0.0, 0.0, 0.0, 0.0, 0.0, 0.0, 0.0, 1.657492800650547E9, 0.0, 2022-07-10 18:40:00.650
174.0, 34054.35789279436, 28461.660857398616, -11795.037900809992, -37161.02685463749, 12318.918087353479, 23883.509502829256, -11710.078920135371, 16223.8796024179, -0.002, 0.9460000000000001, 0.268, 192.0, 0.0, 0.0, 0.0, 0.0, 0.0, 0.0, 0.0, 0.0, 0.0, 1.657492800658621E9, 0.0, 2022-07-10 18:40:00.658
175.0, 35790.104960215685, 28575.587698887313, -11943.185263059768, -37083.60041184431, 12086.661110718383, 26334.40063409813, -11938.893728124349, 16746.5527947608, -0.002, 0.9460000000000001, 0.268, 192.0, 0.0, 0.0, 0.0, 0.0, 0.0, 0.0, 0.0, 0.0, 0.0, 1.657492800658678E9, 0.0, 2022-07-10 18:40:00.658
176.0, 35629.53002804876, 28477.73176166198, -12054.295784747099, -37653.92752336592, 12096.96526491228, 25032.34446434313, -11964.352365058943, 16027.74304482258, -0.002, 0.9460000000000001, 0.268, 192.0, 0.0, 0.0, 0.0, 0.0, 0.0, 0.0, 0.0, 0.0, 0.0, 1.657492800665109E9, 0.0, 2022-07-10 18:40:00.665
177.0, 33985.24629893855, 28371.024533632342, -11921.615829660395, -37798.96799313641, 12325.221279289875, 22516.007425309115, -11744.478254852087, 15431.376151010532, 0.01, 0.9440000000000001, 0.246, 192.0, 0.0, 80.0, 29.0, 128.0, 7.0, 176.0, 0.0, 0.0, 0.0, 1.657492800665171E9, 0.0, 2022-07-10 18:40:00.665
178.0, 33917.34169928333, 28460.45386319803, -11790.992235063582, -37261.45324247518, 12337.023000362278, 23381.91400550771, -11698.433661274155, 16039.857690317356, 0.01, 0.9440000000000001, 0.246, 192.0, 0.0, 0.0, 0.0, 0.0, 0.0, 0.0, 0.0, 0.0, 0.0, 1.657492800673347E9, 0.0, 2022-07-10 18:40:00.673
179.0, 35702.62023241761, 28600.152266043697, -11919.157137770313, -37029.50919026246, 12094.350110811009, 26160.705227935938, -11945.152216571834, 16756.722838487964, 0.01, 0.9440000000000001, 0.246, 192.0, 0.0, 0.0, 0.0, 0.0, 0.0, 0.0, 0.0, 0.0, 0.0, 1.657492800673398E9, 0.0, 2022-07-10 18:40:00.673
180.0, 36017.64571877071, 28530.012491942944, -12067.282148275632, -37561.68187399887, 12064.555235452084, 25570.23919466009, -11984.267769368622, 16231.21097459924, 0.01, 0.9440000000000001, 0.246, 192.0, 0.0, 0.0, 0.0, 0.0, 0.0, 0.0, 0.0, 0.0, 0.0, 1.65749280068153E9, 0.0, 2022-07-10 18:40:00.681
181.0, 34386.84009156705, 28393.555092043294, -11972.756620974138, -37847.44892685997, 12279.511961878772, 22837.17964138742, -11745.864063008317, 15494.765698285782, 0.01, 0.9440000000000001, 0.246, 192.0, 0.0, 0.0, 0.0, 0.0, 0.0, 0.0, 0.0, 0.0, 0.0, 1.657492800681949E9, 0.0, 2022-07-10 18:40:00.681
182.0, 33829.25347438496, 28438.325636187274, -11819.021322610537, -37389.52873820409, 12356.737238971858, 22956.15797712302, -11664.257844001992, 15884.066031463866, 0.01, 0.9440000000000001, 0.246, 192.0, 0.0, 0.0, 0.0, 0.0, 0.0, 0.0, 0.0, 0.0, 0.0, 1.657492800688367E9, 0.0, 2022-07-10 18:40:00.688
183.0, 35491.19508161487, 28598.341774742818, -11888.803468800006, -37005.6375271842, 12153.626937106483, 25842.997532248206, -11859.701497519196, 16745.03287613784, 0.01, 0.9440000000000001, 0.246, 192.0, 0.0, 0.0, 0.0, 0.0, 0.0, 0.0, 0.0, 0.0, 0.0, 1.657492800688415E9, 0.0, 2022-07-10 18:40:00.688
184.0, 36223.482933459636, 28578.739294855513, -12062.454171473286, -37456.02517795863, 12052.48529344622, 25982.60652811605, -11973.963615174725, 16420.68671234688, 0.01, 0.9440000000000001, 0.246, 192.0, 0.0, 0.0, 0.0, 0.0, 0.0, 0.0, 0.0, 0.0, 0.0, 1.65749280069496E9, 0.0, 2022-07-10 18:40:00.694
185.0, 34697.127008095624, 28416.57738883226, -12011.514545859642, -37864.97269451293, 12244.173853894932, 23204.64232023267, -11794.166182776235, 15563.497312485852, 0.01, 0.9440000000000001, 0.246, 192.0, 0.0, 0.0, 0.0, 0.0, 0.0, 0.0, 0.0, 0.0, 0.0, 1.657492800695045E9, 0.0, 2022-07-10 18:40:00.695
186.0, 33721.898045766124, 28419.48311561145, -11835.226337340635, -37502.36034421448, 12380.765364261313, 22600.876999005915, -11648.142236249714, 15734.532861057862, 0.01, 0.9440000000000001, 0.246, 192.0, 0.0, 0.0, 0.0, 0.0, 0.0, 0.0, 0.0, 0.0, 0.0, 1.657492800702807E9, 0.0, 2022-07-10 18:40:00.702
187.0, 35190.74293264663, 28589.199911260595, -11862.651927787296, -37006.46454172904, 12199.179792306399, 25413.397003817205, -11812.360502762855, 16664.81246528774, -0.002, 0.978, 0.246, 192.0, 255.0, 240.0, 30.0, 144.0, 7.0, 176.0, 0.0, 0.0, 0.0, 1.657492800710937E9, 0.0, 2022-07-10 18:40:00.710
188.0, 36365.50591772865, 28608.355356258795, -12049.981898067224, -37352.223676708185, 12042.739932863706, 26320.475497302476, -11973.337766329976, 16570.577510664167, -0.002, 0.978, 0.246, 192.0, 0.0, 0.0, 0.0, 0.0, 0.0, 0.0, 0.0, 0.0, 0.0, 1.657492800710969E9, 0.0, 2022-07-10 18:40:00.710
189.0, 35098.92196642423, 28450.82026133779, -12042.024677041136, -37867.185517214006, 12193.055414325645, 23703.756773919675, -11832.454721028176, 15663.521368923351, -0.002, 0.978, 0.246, 192.0, 0.0, 0.0, 0.0, 0.0, 0.0, 0.0, 0.0, 0.0, 0.0, 1.657492800717899E9, 0.0, 2022-07-10 18:40:00.717
190.0, 33756.029159549376, 28406.80967650529, -11867.569311567464, -37642.841058116086, 12360.44762855144, 22395.464467461643, -11654.668945630663, 15589.470039542919, -0.002, 0.978, 0.246, 192.0, 0.0, 0.0, 0.0, 0.0, 0.0, 0.0, 0.0, 0.0, 0.0, 1.657492800717917E9, 0.0, 2022-07-10 18:40:00.717
191.0, 34874.71161779304, 28573.531338397424, -11841.641287999308, -37068.49063259252, 12235.635487513006, 24893.65188999795, -11763.857217294839, 16513.871134981055, -0.002, 0.978, 0.246, 192.0, 0.0, 0.0, 0.0, 0.0, 0.0, 0.0, 0.0, 0.0, 0.0, 1.657492800725575E9, 0.0, 2022-07-10 18:40:00.725
192.0, 36403.548586791585, 28641.70415898611, -12022.310438431554, -37252.62430341534, 12050.63009865643, 26530.78306088246, -11954.137617842867, 16687.00774753186, -0.002, 0.978, 0.246, 192.0, 0.0, 0.0, 0.0, 0.0, 0.0, 0.0, 0.0, 0.0, 0.0, 1.657492800725599E9, 0.0, 2022-07-10 18:40:00.725
193.0, 35473.85012791755, 28478.201148295542, -12068.936177365325, -37838.374118611115, 12156.465608652308, 24256.627173021698, -11860.662622530774, 15799.55408567835, -0.002, 0.978, 0.246, 192.0, 0.0, 0.0, 0.0, 0.0, 0.0, 0.0, 0.0, 0.0, 0.0, 1.657492800733412E9, 0.0, 2022-07-10 18:40:00.733
194.0, 33820.35748009175, 28391.454028064494, -11905.58962888594, -37769.15076603303, 12349.338811557152, 22306.526876273976, -11657.93230032114, 15482.695756279918, -0.002, 0.978, 0.246, 192.0, 0.0, 0.0, 0.0, 0.0, 0.0, 0.0, 0.0, 0.0, 0.0, 1.657492800733431E9, 0.0, 2022-07-10 18:40:00.733
195.0, 34508.388877915015, 28552.36423639825, -11821.681180200718, -37140.48560148306, 12282.864723547069, 24312.886513815705, -11706.592048000342, 16349.608164979001, -0.002, 0.978, 0.246, 192.0, 0.0, 0.0, 0.0, 0.0, 0.0, 0.0, 0.0, 0.0, 0.0, 1.657492800741675E9, 0.0, 2022-07-10 18:40:00.741
196.0, 36306.720829811195, 28662.401874351726, -11994.415461351331, -37153.606075478325, 12053.267604502154, 26584.36019234183, -11927.78491113006, 16776.392373608636, -0.002, 0.978, 0.246, 192.0, 0.0, 0.0, 0.0, 0.0, 0.0, 0.0, 0.0, 0.0, 0.0, 1.657492800741724E9, 0.0, 2022-07-10 18:40:00.741
197.0, 35804.14185573362, 28523.195209884074, -12083.598921728006, -37772.68234165697, 12103.983712671246, 24813.67734833686, -11888.490544377632, 15957.938546888656, 0.01, 0.9480000000000001, 0.23800000000000002, 192.0, 0.0, 80.0, 29.0, 160.0, 7.0, 112.0, 0.0, 0.0, 0.0, 1.657492800748085E9, 0.0, 2022-07-10 18:40:00.748
198.0, 33975.70210405614, 28402.540493314325, -11927.829614618971, -37846.688967548485, 12337.58179397366, 22369.156464237745, -11661.866207345272, 15432.605496955573, 0.01, 0.9480000000000001, 0.23800000000000002, 192.0, 0.0, 0.0, 0.0, 0.0, 0.0, 0.0, 0.0, 0.0, 0.0, 1.657492800748104E9, 0.0, 2022-07-10 18:40:00.748
199.0, 34168.485899983156, 28525.877419218712, -11816.29440978699, -37233.62532062833, 12313.710130895393, 23736.479727802245, -11669.488152204533, 16164.446313911238, 0.01, 0.9480000000000001, 0.23800000000000002, 192.0, 0.0, 0.0, 0.0, 0.0, 0.0, 0.0, 0.0, 0.0, 0.0, 1.657492800756297E9, 0.0, 2022-07-10 18:40:00.756
200.0, 36097.419094731704, 28673.37658087928, -11968.330975571987, -37078.81713853087, 12066.231616286233, 26469.0475426969, -11905.634332374852, 16801.89571403214, 0.01, 0.9480000000000001, 0.23800000000000002, 192.0, 0.0, 0.0, 0.0, 0.0, 0.0, 0.0, 0.0, 0.0, 0.0, 1.657492800756344E9, 0.0, 2022-07-10 18:40:00.756
201.0, 36077.86131833331, 28566.043504004898, -12097.077023634556, -37680.05671263418, 12068.064459331568, 25339.077453503305, -11924.83448086196, 16112.769080730568, 0.01, 0.9480000000000001, 0.23800000000000002, 192.0, 0.0, 0.0, 0.0, 0.0, 0.0, 0.0, 0.0, 0.0, 0.0, 1.657492800764337E9, 0.0, 2022-07-10 18:40:00.764
202.0, 34198.81721720901, 28409.268368395373, -11973.203655863244, -37901.093113552706, 12297.236895231832, 22556.240565328666, -11720.673647007186, 15400.039005284192, 0.01, 0.9480000000000001, 0.23800000000000002, 192.0, 0.0, 0.0, 0.0, 0.0, 0.0, 0.0, 0.0, 0.0, 0.0, 1.657492800770687E9, 0.0, 2022-07-10 18:40:00.770
203.0, 33891.07839954834, 28497.758924693935, -11816.182651064713, -37340.31019691351, 12346.567195244694, 23190.69483169256, -11650.086838017325, 15955.68102069867, 0.01, 0.9480000000000001, 0.23800000000000002, 192.0, 0.0, 0.0, 0.0, 0.0, 0.0, 0.0, 0.0, 0.0, 0.0, 1.657492800770766E9, 0.0, 2022-07-10 18:40:00.770
204.0, 35832.0591845583, 28689.045153742452, -11915.022065046081, -37008.23032954101, 12118.02060818918, 26203.642929034584, -11856.259328873079, 16786.98710048045, 0.01, 0.9480000000000001, 0.23800000000000002, 192.0, 0.0, 0.0, 0.0, 0.0, 0.0, 0.0, 0.0, 0.0, 0.0, 1.657492800777648E9, 0.0, 2022-07-10 18:40:00.777
205.0, 36344.91996108532, 28638.641969995737, -12072.087773333524, -37534.63626320795, 12056.039220814613, 25842.036407236625, -11930.042437320048, 16295.293425952606, 0.01, 0.9480000000000001, 0.23800000000000002, 192.0, 0.0, 0.0, 0.0, 0.0, 0.0, 0.0, 0.0, 0.0, 0.0, 1.657492800777668E9, 0.0, 2022-07-10 18:40:00.777
206.0, 34554.92520987096, 28458.464557941505, -12002.104461443956, -37903.61886067616, 12255.930871478424, 22897.73051711685, -11747.674554309197, 15436.517052235253, 0.01, 0.9480000000000001, 0.23800000000000002, 192.0, 0.0, 0.0, 0.0, 0.0, 0.0, 0.0, 0.0, 0.0, 0.0, 1.657492800785766E9, 0.0, 2022-07-10 18:40:00.785
207.0, 33742.036967520355, 28489.64524145666, -11839.741389720606, -37462.90951525087, 12353.004497647822, 22718.670692285385, -11644.744771092508, 15743.808835006814, 0.008, 0.9540000000000001, 0.228, 192.0, 0.0, 64.0, 29.0, 208.0, 7.0, 32.0, 0.0, 0.0, 0.0, 1.657492800785811E9, 0.0, 2022-07-10 18:40:00.785
208.0, 35514.664413292936, 28685.602985096335, -11883.841381530927, -36986.05739904135, 12156.286794696665, 25780.59146172899, -11821.994104623092, 16697.378956959124, 0.008, 0.9540000000000001, 0.228, 192.0, 0.0, 0.0, 0.0, 0.0, 0.0, 0.0, 0.0, 0.0, 0.0, 1.657492800794185E9, 0.0, 2022-07-10 18:40:00.794
209.0, 36516.804875946626, 28678.405723381726, -12050.607746911974, -37395.720171418216, 12047.791427110604, 26248.234659222922, -11934.311620511011, 16461.791570400186, 0.008, 0.9540000000000001, 0.228, 192.0, 0.0, 0.0, 0.0, 0.0, 0.0, 0.0, 0.0, 0.0, 0.0, 1.65749280079423E9, 0.0, 2022-07-10 18:40:00.794
210.0, 34913.60365314528, 28498.652994472148, -12010.061682470046, -37854.40031938557, 12236.194281124388, 23338.52926951996, -11771.054479009448, 15535.132948772069, 0.008, 0.9540000000000001, 0.228, 192.0, 0.0, 0.0, 0.0, 0.0, 0.0, 0.0, 0.0, 0.0, 0.0, 1.657492800800931E9, 0.0, 2022-07-10 18:40:00.800
211.0, 33655.82628915623, 28481.26333728592, -11827.313819803456, -37518.63241417795, 12387.157963175532, 22404.226351288125, -11627.01983773945, 15614.012254954847, 0.008, 0.9540000000000001, 0.228, 192.0, 0.0, 0.0, 0.0, 0.0, 0.0, 0.0, 0.0, 0.0, 0.0, 1.657492800801E9, 0.0, 2022-07-10 18:40:00.801
212.0, 35133.455411607676, 28695.504807890036, -11825.05629361347, -36955.36845390421, 12226.337161819598, 25283.131037131672, -11758.582205603387, 16615.28099957478, 0.008, 0.9540000000000001, 0.228, 192.0, 0.0, 0.0, 0.0, 0.0, 0.0, 0.0, 0.0, 0.0, 0.0, 1.657492800808743E9, 0.0, 2022-07-10 18:40:00.808
213.0, 36583.010743023246, 28759.386093543304, -12013.392092393888, -37251.37260572584, 12060.554273194584, 26539.522592964484, -11882.142648952324, 16645.25468888935, 0.008, 0.9540000000000001, 0.228, 192.0, 0.0, 0.0, 0.0, 0.0, 0.0, 0.0, 0.0, 0.0, 0.0, 1.657492800808773E9, 0.0, 2022-07-10 18:40:00.808
214.0, 35308.53662592609, 28583.388457702218, -12017.683627329307, -37810.0768101307, 12210.22155406732, 23878.659174282453, -11752.234310178079, 15691.841029148225, 0.008, 0.9540000000000001, 0.228, 192.0, 0.0, 0.0, 0.0, 0.0, 0.0, 0.0, 0.0, 0.0, 0.0, 1.657492800817764E9, 0.0, 2022-07-10 18:40:00.817
215.0, 33689.30920235028, 28520.51300054944, -11828.207889581668, -37611.81683681212, 12410.046149497766, 22241.68446560913, -11554.309613026335, 15520.693721853939, 0.008, 0.9540000000000001, 0.228, 192.0, 0.0, 0.0, 0.0, 0.0, 0.0, 0.0, 0.0, 0.0, 0.0, 1.657492800817794E9, 0.0, 2022-07-10 18:40:00.817
216.0, 34747.261970908876, 28720.382299468794, -11781.068060525426, -36986.459730441544, 12290.24079921732, 24709.764088364136, -11657.775838109952, 16484.72446021133, 0.024, 0.982, 0.222, 192.0, 0.0, 192.0, 30.0, 176.0, 6.0, 240.0, 0.0, 0.0, 0.0, 1.65749280082428E9, 0.0, 2022-07-10 18:40:00.824
217.0, 36539.89422796896, 28834.845582824422, -11969.113286627924, -37119.27379599497, 12078.122744336457, 26677.924594631746, -11879.192218684224, 16758.108646644192, 0.024, 0.982, 0.222, 192.0, 0.0, 0.0, 0.0, 0.0, 0.0, 0.0, 0.0, 0.0, 0.0, 1.657492800829941E9, 0.0, 2022-07-10 18:40:00.829
218.0, 35687.71161886593, 28671.923717489688, -12031.765226336149, -37727.1071347126, 12171.240111737265, 24447.35460845883, -11795.037900809992, 15840.36837105374, 0.024, 0.982, 0.222, 192.0, 0.0, 0.0, 0.0, 0.0, 0.0, 0.0, 0.0, 0.0, 0.0, 1.657492800829959E9, 0.0, 2022-07-10 18:40:00.829
219.0, 33819.55281729136, 28570.46914940705, -11858.315689362966, -37685.86816619255, 12388.364957376118, 22215.309407151868, -11569.017060877928, 15438.01461911376, 0.024, 0.982, 0.222, 192.0, 0.0, 0.0, 0.0, 0.0, 0.0, 0.0, 0.0, 0.0, 0.0, 1.657492800838142E9, 0.0, 2022-07-10 18:40:00.838
220.0, 34382.99559152074, 28732.474593219114, -11766.964109774126, -37050.72099575055, 12326.070645579177, 24101.953101390973, -11610.97128522054, 16297.573303887048, 0.024, 0.982, 0.222, 192.0, 0.0, 0.0, 0.0, 0.0, 0.0, 0.0, 0.0, 0.0, 0.0, 1.65749280083819E9, 0.0, 2022-07-10 18:40:00.838
221.0, 36396.284269843614, 28876.53158623357, -11940.301888025033, -37020.47908550252, 12092.114936365479, 26664.915879358756, -11849.419695069755, 16816.84903107274, 0.024, 0.982, 0.222, 192.0, 0.0, 0.0, 0.0, 0.0, 0.0, 0.0, 0.0, 0.0, 0.0, 1.657492800845998E9, 0.0, 2022-07-10 18:40:00.845
222.0, 36035.92944573515, 28735.49207872058, -12042.941098563802, -37647.110241307055, 12135.745541542237, 25027.04710090722, -11828.38670353731, 16004.653692800248, 0.024, 0.982, 0.222, 192.0, 0.0, 0.0, 0.0, 0.0, 0.0, 0.0, 0.0, 0.0, 0.0, 1.657492800846025E9, 0.0, 2022-07-10 18:40:00.846
223.0, 34030.530933205, 28582.27087047945, -11890.30103567851, -37758.466632183394, 12370.371803089596, 22340.434472612676, -11594.699215257075, 15395.099269759568, 0.024, 0.982, 0.222, 192.0, 0.0, 0.0, 0.0, 0.0, 0.0, 0.0, 0.0, 0.0, 0.0, 1.657492800852509E9, 0.0, 2022-07-10 18:40:00.852
224.0, 34030.754450649554, 28701.49507540406, -11756.972880002604, -37162.21149709362, 12372.249349623842, 23481.98276543412, -11578.538904015888, 16080.806086159479, 0.024, 0.982, 0.222, 192.0, 0.0, 0.0, 0.0, 0.0, 0.0, 0.0, 0.0, 0.0, 0.0, 1.657492800852534E9, 0.0, 2022-07-10 18:40:00.852
225.0, 36127.906874168744, 28889.47324627319, -11891.105698478903, -36939.632825807676, 12125.888422237447, 26457.961077447068, -11817.85903189886, 16827.086130033273, 0.024, 0.982, 0.222, 192.0, 0.0, 0.0, 0.0, 0.0, 0.0, 0.0, 0.0, 0.0, 0.0, 1.657492800860607E9, 0.0, 2022-07-10 18:40:00.860
226.0, 36330.078402766994, 28799.932157985233, -12038.694267117295, -37529.785934661144, 12095.959436411791, 25571.49089234959, -11856.3487358509, 16184.115849031909, 0.02, 0.98, 0.218, 192.0, 0.0, 160.0, 30.0, 160.0, 6.0, 208.0, 0.0, 0.0, 0.0, 1.657492800860625E9, 0.0, 2022-07-10 18:40:00.860
227.0, 34329.418460061366, 28614.61384470628, -11925.683847151262, -37801.471388515405, 12333.089093338143, 22595.959615225747, -11618.25795391297, 15391.880618558005, 0.02, 0.98, 0.218, 192.0, 0.0, 0.0, 0.0, 0.0, 0.0, 0.0, 0.0, 0.0, 0.0, 1.65749280086883E9, 0.0, 2022-07-10 18:40:00.868
228.0, 33796.776389691404, 28682.540796105957, -11760.817380048917, -37270.05866409048, 12408.25800994134, 22961.947078936944, -11536.294106995358, 15883.104906452289, 0.02, 0.98, 0.218, 192.0, 0.0, 0.0, 0.0, 0.0, 0.0, 0.0, 0.0, 0.0, 0.0, 1.657492800868985E9, 0.0, 2022-07-10 18:40:00.868
229.0, 35807.22639646845, 28885.09230435995, -11857.689840518218, -36905.4123050466, 12162.701745355338, 26109.63149185556, -11763.432534150188, 16784.953091735017, 0.02, 0.98, 0.218, 192.0, 0.0, 0.0, 0.0, 0.0, 0.0, 0.0, 0.0, 0.0, 0.0, 1.657492800875634E9, 0.0, 2022-07-10 18:40:00.875
230.0, 36530.730012742286, 28835.35967294689, -12035.162691493357, -37431.17003812433, 12067.080982575535, 26011.99907207478, -11863.545997565509, 16353.743237703233, 0.02, 0.98, 0.218, 192.0, 0.0, 0.0, 0.0, 0.0, 0.0, 0.0, 0.0, 0.0, 0.0, 1.657492800875655E9, 0.0, 2022-07-10 18:40:00.875
231.0, 34680.430254987514, 28637.546734517426, -11958.675021967296, -37825.499513804854, 12291.917180051469, 22968.563195295716, -11656.635899142731, 15446.374171540043, 0.02, 0.98, 0.218, 192.0, 0.0, 0.0, 0.0, 0.0, 0.0, 0.0, 0.0, 0.0, 0.0, 1.657492800883668E9, 0.0, 2022-07-10 18:40:00.883
232.0, 33648.60667569717, 28654.198784136628, -11771.859141809839, -37393.44029348377, 12421.378483936607, 22536.481623230175, -11524.112406267215, 15696.110212339188, 0.02, 0.98, 0.218, 192.0, 0.0, 0.0, 0.0, 0.0, 0.0, 0.0, 0.0, 0.0, 0.0, 1.657492800891659E9, 0.0, 2022-07-10 18:40:00.891
233.0, 35430.979482052266, 28871.94947862023, -11818.663694699251, -36902.19365384503, 12211.964990134835, 25636.02037859206, -11724.98753368706, 16680.525741639824, 0.02, 0.98, 0.218, 192.0, 0.0, 0.0, 0.0, 0.0, 0.0, 0.0, 0.0, 0.0, 0.0, 1.657492800891679E9, 0.0, 2022-07-10 18:40:00.891
234.0, 36651.451784545396, 28883.550033992535, -12015.403749394865, -37314.98567044565, 12066.969223853259, 26364.55313736834, -11872.710212792184, 16499.5436667852, 0.02, 0.98, 0.218, 192.0, 0.0, 0.0, 0.0, 0.0, 0.0, 0.0, 0.0, 0.0, 0.0, 1.657492800898702E9, 0.0, 2022-07-10 18:40:00.898
235.0, 35073.48568123409, 28678.29396465945, -11991.107403171945, -37827.62292952811, 12250.968784209346, 23458.35697154486, -11706.882620678261, 15530.640248136551, 0.02, 0.98, 0.218, 192.0, 0.0, 0.0, 0.0, 0.0, 0.0, 0.0, 0.0, 0.0, 0.0, 1.657492800898753E9, 0.0, 2022-07-10 18:40:00.898
236.0, 33606.339526932185, 28642.888801442245, -11788.66765364023, -37528.06485033809, 12434.655420143059, 22258.73884662853, -11493.065833218794, 15535.02119004979, 0.012, 0.988, 0.218, 192.0, 0.0, 96.0, 30.0, 224.0, 6.0, 208.0, 0.0, 0.0, 0.0, 1.657492800907226E9, 0.0, 2022-07-10 18:40:00.907
237.0, 35022.92603527618, 28865.62393493938, -11771.054479009448, -36929.0157471914, 12275.980386254834, 25075.86331079761, -11618.660285313164, 16547.577565619657, 0.012, 0.988, 0.218, 192.0, 0.0, 0.0, 0.0, 0.0, 0.0, 0.0, 0.0, 0.0, 0.0, 1.657492800907291E9, 0.0, 2022-07-10 18:40:00.907
238.0, 36683.66064830549, 28934.02027297262, -11972.711917485229, -37184.384427593286, 12075.440535001819, 26607.717765297624, -11807.756043405063, 16642.460720832434, 0.012, 0.988, 0.218, 192.0, 0.0, 0.0, 0.0, 0.0, 0.0, 0.0, 0.0, 0.0, 0.0, 1.657492800913586E9, 0.0, 2022-07-10 18:40:00.913
239.0, 35489.98808741428, 28738.77778515551, -11999.243438153677, -37778.180870792974, 12207.427586010408, 24023.3196643972, -11675.903102863205, 15663.163741012067, 0.012, 0.988, 0.218, 192.0, 0.0, 0.0, 0.0, 0.0, 0.0, 0.0, 0.0, 0.0, 0.0, 1.657492800913617E9, 0.0, 2022-07-10 18:40:00.913
240.0, 33691.43261807354, 28646.509784044003, -11814.618028952842, -37638.370709225026, 12411.878992543101, 22136.81008062483, -11484.281597647858, 15398.407327938954, 0.012, 0.988, 0.218, 192.0, 0.0, 0.0, 0.0, 0.0, 0.0, 0.0, 0.0, 0.0, 0.0, 1.657492800921122E9, 0.0, 2022-07-10 18:40:00.921
241.0, 34616.34780363415, 28840.32176021597, -11749.485045610076, -37003.82703588332, 12304.925895324457, 24436.759881587015, -11594.453346068067, 16334.81131014959, 0.012, 0.988, 0.218, 192.0, 0.0, 0.0, 0.0, 0.0, 0.0, 0.0, 0.0, 0.0, 0.0, 1.657492800921144E9, 0.0, 2022-07-10 18:40:00.921
242.0, 36585.9835250358, 28960.39533142988, -11949.89078639636, -37094.64217360523, 12062.141247050911, 26650.946039074188, -11851.364296837366, 16691.813372589753, 0.012, 0.988, 0.218, 192.0, 0.0, 0.0, 0.0, 0.0, 0.0, 0.0, 0.0, 0.0, 0.0, 1.657492800928806E9, 0.0, 2022-07-10 18:40:00.928
243.0, 35869.923039665584, 28790.253852636084, -12027.674857100828, -37747.82720182266, 12146.161454458412, 24561.750836581094, -11782.744441359573, 15782.946739548057, 0.012, 0.988, 0.218, 192.0, 0.0, 0.0, 0.0, 0.0, 0.0, 0.0, 0.0, 0.0, 0.0, 1.657492800928879E9, 0.0, 2022-07-10 18:40:00.928
244.0, 33853.23689618551, 28654.46700507009, -11850.358468336877, -37772.50352770132, 12390.153096932543, 22117.006435037427, -11517.18336548607, 15310.564972229598, 0.012, 0.988, 0.218, 192.0, 0.0, 0.0, 0.0, 0.0, 0.0, 0.0, 0.0, 0.0, 0.0, 1.657492800935756E9, 0.0, 2022-07-10 18:40:00.935
245.0, 34236.993996738674, 28806.32475689945, -11737.213937904113, -37123.92295884168, 12355.843169193646, 23781.674955090875, -11526.90637432413, 16144.754427046113, 0.012, 0.988, 0.218, 192.0, 0.0, 0.0, 0.0, 0.0, 0.0, 0.0, 0.0, 0.0, 0.0, 1.657492800935799E9, 0.0, 2022-07-10 18:40:00.935
246.0, 36386.80713019456, 28981.629488662424, -11902.683902106752, -37013.46063774355, 12098.596942257518, 26543.881183133268, -11776.62006337882, 16757.616908266176, 0.012, 0.988, 0.218, 192.0, 0.0, 0.0, 30.0, 160.0, 6.0, 208.0, 0.0, 0.0, 0.0, 1.657492800942574E9, 0.0, 2022-07-10 18:40:00.942
247.0, 36209.2448722416, 28843.94274281773, -12029.261830957155, -37657.369692012035, 12112.544430797629, 25128.009930611843, -11772.172066232213, 15985.16297163522, 0.012, 0.988, 0.218, 192.0, 0.0, 0.0, 0.0, 0.0, 0.0, 0.0, 0.0, 0.0, 0.0, 1.657492800942595E9, 0.0, 2022-07-10 18:40:00.942
248.0, 34107.532692853536, 28659.80907199491, -11893.273817691066, -37845.90665649255, 12355.843169193646, 22285.091553341335, -11537.635211662677, 15296.684538922853, 0.012, 0.988, 0.218, 192.0, 0.0, 0.0, 0.0, 0.0, 0.0, 0.0, 0.0, 0.0, 0.0, 1.657492800950726E9, 0.0, 2022-07-10 18:40:00.950
249.0, 33922.5049522525, 28763.5882215009, -11748.143940942758, -37245.672910889734, 12378.150210160044, 23191.834770659778, -11500.218391444492, 15939.408950735207, 0.012, 0.988, 0.218, 192.0, 0.0, 0.0, 0.0, 0.0, 0.0, 0.0, 0.0, 0.0, 0.0, 1.657492800958548E9, 0.0, 2022-07-10 18:40:00.958
250.0, 36088.81367311641, 28975.92979382632, -11873.626634314853, -36960.84463129576, 12132.817463018593, 26281.851682883702, -11740.790217016962, 16751.26901284087, 0.012, 0.988, 0.218, 192.0, 0.0, 0.0, 0.0, 0.0, 0.0, 0.0, 0.0, 0.0, 0.0, 1.657492800958569E9, 0.0, 2022-07-10 18:40:00.958
251.0, 36465.9546573108, 28889.652060228833, -12039.208357239766, -37554.4622605398, 12078.14509608091, 25636.109785569883, -11800.178802034712, 16164.245148211141, 0.012, 0.988, 0.218, 192.0, 0.0, 0.0, 0.0, 0.0, 0.0, 0.0, 0.0, 0.0, 0.0, 1.65749280096556E9, 0.0, 2022-07-10 18:40:00.965
252.0, 34430.53775197718, 28691.10151423234, -11928.254297763622, -37885.53629941181, 12327.747026413326, 22597.52423733762, -11560.858674151741, 15327.664056737907, 0.012, 0.988, 0.218, 192.0, 0.0, 0.0, 0.0, 0.0, 0.0, 0.0, 0.0, 0.0, 0.0, 1.657492800965612E9, 0.0, 2022-07-10 18:40:00.965
253.0, 33693.89130996363, 28732.429889730203, -11756.90582476924, -37373.7707583631, 12409.420300653017, 22697.883569941947, -11471.921082964074, 15749.888509498658, 0.012, 0.988, 0.218, 192.0, 0.0, 0.0, 0.0, 0.0, 0.0, 0.0, 0.0, 0.0, 0.0, 1.657492800974982E9, 0.0, 2022-07-10 18:40:00.974
254.0, 35704.58718592968, 28953.01925575963, -11837.14858736379, -36936.52593332838, 12173.564693160617, 25876.234576253246, -11705.31799856639, 16695.30024472478, 0.012, 0.988, 0.218, 192.0, 0.0, 0.0, 0.0, 0.0, 0.0, 0.0, 0.0, 0.0, 0.0, 1.657492800975029E9, 0.0, 2022-07-10 18:40:00.975
255.0, 36639.717118706365, 28926.64419730237, -12022.71276983175, -37428.48782878969, 12073.026546600646, 26083.323488631668, -11797.943627589182, 16362.125141873974, 0.012, 0.988, 0.218, 192.0, 0.0, 0.0, 0.0, 0.0, 0.0, 0.0, 0.0, 0.0, 0.0, 1.657492800981687E9, 0.0, 2022-07-10 18:40:00.981
0.0, 34813.37843100768, 28706.032479528487, -11968.219216849711, -37896.06397105026, 12287.066851504667, 23057.47843473893, -11596.017968179938, 15418.747415393284, -0.006, 0.964, 0.22, 192.0, 255.0, 208.0, 30.0, 32.0, 6.0, 224.0, 0.0, 0.0, 0.0, 1.657492800981707E9, 0.0, 2022-07-10 18:40:00.981
1.0, 33567.80511949123, 28694.431924156183, -11781.224522736613, -37518.2077310333, 12429.782739851802, 22325.27998987198, -11450.284594331337, 15573.868521913115, -0.006, 0.964, 0.22, 192.0, 0.0, 0.0, 0.0, 0.0, 0.0, 0.0, 0.0, 0.0, 0.0, 1.657492800988084E9, 0.0, 2022-07-10 18:40:00.988
2.0, 35268.48229986218, 28918.709328020734, -11811.108805073358, -36963.61624760822, 12228.795853709682, 25349.471014675026, -11645.63884087072, 16580.546388691233, -0.006, 0.964, 0.22, 192.0, 0.0, 0.0, 0.0, 0.0, 0.0, 0.0, 0.0, 0.0, 0.0, 1.657492800988113E9, 0.0, 2022-07-10 18:40:00.988
3.0, 36706.72764858337, 28950.69467433628, -12023.763301821149, -37327.14501942933, 12045.533900920618, 26380.378172442695, -11832.521776261543, 16495.341538827604, -0.006, 0.964, 0.22, 192.0, 0.0, 0.0, 0.0, 0.0, 0.0, 0.0, 0.0, 0.0, 0.0, 1.657492800995805E9, 0.0, 2022-07-10 18:40:00.995
4.0, 35205.1598078203, 28740.342407267384, -12006.552458590562, -37892.152415770586, 12226.627734497517, 23539.873783573366, -11654.803056097397, 15510.277808937766, -0.006, 0.964, 0.22, 192.0, 0.0, 0.0, 0.0, 0.0, 0.0, 0.0, 0.0, 0.0, 0.0, 1.657492800995826E9, 0.0, 2022-07-10 18:40:00.995
5.0, 33557.99270367536, 28680.260918171516, -11799.95528459016, -37632.82747660011, 12432.017914297334, 22093.000661492428, -11449.211710597481, 15438.931040636426, -0.006, 0.964, 0.22, 192.0, 0.0, 0.0, 0.0, 0.0, 0.0, 0.0, 0.0, 0.0, 0.0, 1.65749280100384E9, 0.0, 2022-07-10 18:40:01.003
6.0, 34837.04892838585, 28891.95428990773, -11776.932987801194, -36996.540367190886, 12279.400203156496, 24764.928193679836, -11586.697290742075, 16443.172567268917, -0.006, 0.964, 0.22, 192.0, 0.0, 0.0, 0.0, 0.0, 0.0, 0.0, 0.0, 0.0, 0.0, 1.657492801003895E9, 0.0, 2022-07-10 18:40:01.003
7.0, 36659.74428173832, 28987.396238731893, -11980.22210362221, -37193.30277363095, 12062.275357517643, 26556.174642583686, -11813.612200452353, 16635.352866095647, -0.006, 0.964, 0.22, 192.0, 0.0, 0.0, 0.0, 0.0, 0.0, 0.0, 0.0, 0.0, 0.0, 1.657492801010896E9, 0.0, 2022-07-10 18:40:01.010
8.0, 35593.722533431355, 28789.18096890223, -12023.360970420954, -37830.39454584057, 12178.638539151973, 24120.30388358878, -11722.595897030342, 15667.656441647583, -0.006, 0.964, 0.22, 192.0, 0.0, 0.0, 0.0, 0.0, 0.0, 0.0, 0.0, 0.0, 0.0, 1.657492801017875E9, 0.0, 2022-07-10 18:40:01.017
9.0, 33660.85543165868, 28677.936336748164, -11843.921165933749, -37751.22466697987, 12388.432012609484, 22017.317654766757, -11517.071606763793, 15319.058635122614, -0.006, 0.964, 0.22, 192.0, 0.0, 0.0, 0.0, 0.0, 0.0, 0.0, 0.0, 0.0, 0.0, 1.657492801017935E9, 0.0, 2022-07-10 18:40:01.017
10.0, 34438.09264160307, 28882.074818858484, -11755.497664868553, -37073.005684972486, 12319.521584453772, 24140.86748848766, -11544.251328021446, 16253.339201609995, -0.012, 0.9540000000000001, 0.226, 192.0, 255.0, 160.0, 29.0, 208.0, 7.0, 16.0, 0.0, 0.0, 0.0, 1.657492801025675E9, 0.0, 2022-07-10 18:40:01.025
11.0, 36528.628948763486, 29036.346559089015, -11933.97634434418, -37077.45368211909, 12094.48422127774, 26575.464198048616, -11760.392696904266, 16729.16313757457, -0.012, 0.9540000000000001, 0.226, 192.0, 0.0, 0.0, 0.0, 0.0, 0.0, 0.0, 0.0, 0.0, 0.0, 1.657492801025717E9, 0.0, 2022-07-10 18:40:01.025
12.0, 35986.37562827774, 28858.292562758037, -12030.245307713189, -37740.74169883033, 12147.413152147908, 24708.624149396917, -11731.782464001473, 15851.834815959313, -0.012, 0.9540000000000001, 0.226, 192.0, 0.0, 0.0, 0.0, 0.0, 0.0, 0.0, 0.0, 0.0, 0.0, 1.657492801033804E9, 0.0, 2022-07-10 18:40:01.033
13.0, 33900.06380081938, 28702.97029053811, -11859.567387052464, -37820.93975793597, 12393.282341156286, 22121.00739729493, -11503.772318812886, 15282.580588171553, -0.012, 0.9540000000000001, 0.226, 192.0, 0.0, 0.0, 0.0, 0.0, 0.0, 0.0, 0.0, 0.0, 0.0, 1.657492801033853E9, 0.0, 2022-07-10 18:40:01.033
14.0, 34088.77957925553, 28851.162356276796, -11726.88743196576, -37168.06765414091, 12382.59820730665, 23548.14392902183, -11488.170801183081, 16082.549522226993, -0.012, 0.9540000000000001, 0.226, 192.0, 0.0, 0.0, 0.0, 0.0, 0.0, 0.0, 0.0, 0.0, 0.0, 1.657492801040715E9, 0.0, 2022-07-10 18:40:01.040
15.0, 36276.23305037416, 29047.4553760833, -11882.232055930144, -36986.14680601917, 12115.96424769929, 26447.679274997627, -11749.976783988093, 16777.688774787042, -0.012, 0.9540000000000001, 0.226, 192.0, 0.0, 0.0, 0.0, 0.0, 0.0, 0.0, 0.0, 0.0, 0.0, 1.657492801040754E9, 0.0, 2022-07-10 18:40:01.040
16.0, 36294.94146048325, 28933.461479361235, -12023.271563443133, -37626.121953263515, 12108.141137139934, 25294.44101982606, -11768.70754584164, 16051.301783478473, -0.012, 0.9540000000000001, 0.226, 192.0, 0.0, 0.0, 0.0, 0.0, 0.0, 0.0, 0.0, 0.0, 0.0, 1.657492801048605E9, 0.0, 2022-07-10 18:40:01.048
17.0, 34189.40713279333, 28735.44737523167, -11894.391404913833, -37867.36433116965, 12351.082247624667, 22379.840598087383, -11515.618743374198, 15310.408510018411, -0.012, 0.9540000000000001, 0.226, 192.0, 0.0, 0.0, 0.0, 0.0, 0.0, 0.0, 0.0, 0.0, 0.0, 1.657492801048642E9, 0.0, 2022-07-10 18:40:01.048
18.0, 33808.533407274896, 28816.964187260175, -11737.303344881933, -37290.19758584471, 12400.256085426341, 23012.372614428117, -11456.587786267733, 15878.746316283503, -0.012, 0.9540000000000001, 0.226, 192.0, 0.0, 0.0, 0.0, 0.0, 0.0, 0.0, 0.0, 0.0, 0.0, 1.657492801056094E9, 0.0, 2022-07-10 18:40:01.056
19.0, 35942.94618880108, 29039.632265523946, -11837.573270508441, -36935.698918783535, 12169.764896603216, 26149.305838263732, -11689.470611747576, 16756.4546175545, -0.012, 0.9540000000000001, 0.226, 192.0, 0.0, 0.0, 0.0, 0.0, 0.0, 0.0, 0.0, 0.0, 0.0, 1.657492801056129E9, 0.0, 2022-07-10 18:40:01.056
20.0, 36517.05074513564, 28976.376828715423, -12013.414444138341, -37498.962879057275, 12085.67763396235, 25795.075392136026, -11799.172973534223, 16257.854253989966, -0.006, 0.9580000000000001, 0.23800000000000002, 192.0, 255.0, 208.0, 29.0, 240.0, 7.0, 112.0, 0.0, 0.0, 0.0, 1.657492801064833E9, 0.0, 2022-07-10 18:40:01.064
21.0, 34529.66773863647, 28762.068302877942, -11933.909289110816, -37892.17476751504, 12305.395281958019, 22749.091416489056, -11590.765308232942, 15368.94772874686, -0.006, 0.9580000000000001, 0.23800000000000002, 192.0, 0.0, 0.0, 0.0, 0.0, 0.0, 0.0, 0.0, 0.0, 0.0, 1.657492801064879E9, 0.0, 2022-07-10 18:40:01.064
22.0, 33617.49304741538, 28805.162466187772, -11742.556004828932, -37414.94267164978, 12435.527138176816, 22566.2764985891, -11413.873602613641, 15710.974122401969, -0.006, 0.9580000000000001, 0.23800000000000002, 192.0, 0.0, 0.0, 0.0, 0.0, 0.0, 0.0, 0.0, 0.0, 0.0, 1.657492801072506E9, 0.0, 2022-07-10 18:40:01.072
23.0, 35531.07059372313, 29029.17164911886, -11808.918334116737, -36925.64063377865, 12203.896010386468, 25696.772420021585, -11626.68456157262, 16679.743430583887, -0.006, 0.9580000000000001, 0.23800000000000002, 192.0, 0.0, 0.0, 0.0, 0.0, 0.0, 0.0, 0.0, 0.0, 0.0, 1.657492801079093E9, 0.0, 2022-07-10 18:40:01.079
24.0, 36648.657816488485, 29020.633282736933, -12008.89939175837, -37375.62595315289, 12058.453209215786, 26189.85190270566, -11782.587979148386, 16438.210479999838, -0.006, 0.9580000000000001, 0.23800000000000002, 192.0, 0.0, 0.0, 0.0, 0.0, 0.0, 0.0, 0.0, 0.0, 0.0, 1.657492801079136E9, 0.0, 2022-07-10 18:40:01.079
25.0, 34925.0924497953, 28802.815533019966, -11970.387336061876, -37891.83949134821, 12267.464371617363, 23223.909523953145, -11586.317311086335, 15493.715166296384, -0.006, 0.9580000000000001, 0.23800000000000002, 192.0, 0.0, 0.0, 0.0, 0.0, 0.0, 0.0, 0.0, 0.0, 0.0, 1.657492801085618E9, 0.0, 2022-07-10 18:40:01.085
26.0, 33545.7662994583, 28774.518224539548, -11773.513170899532, -37552.450603538826, 12433.783702109302, 22250.893384324718, -11420.422663739046, 15568.168827077012, -0.006, 0.9580000000000001, 0.23800000000000002, 192.0, 0.0, 0.0, 0.0, 0.0, 0.0, 0.0, 0.0, 0.0, 0.0, 1.657492801085638E9, 0.0, 2022-07-10 18:40:01.085
27.0, 35108.555568284464, 29002.21544530576, -11772.395583676765, -36947.70180555604, 12265.0950867051, 25165.471454318937, -11581.466982539534, 16587.85540912812, -0.006, 0.9580000000000001, 0.23800000000000002, 192.0, 0.0, 0.0, 0.0, 0.0, 0.0, 0.0, 0.0, 0.0, 0.0, 1.657492801093182E9, 0.0, 2022-07-10 18:40:01.093
28.0, 36672.26125863329, 29055.99374246523, -11981.742022245173, -37248.08689929091, 12074.43470650133, 26465.091283928312, -11782.431516937198, 16600.841772656655, -0.006, 0.9580000000000001, 0.23800000000000002, 192.0, 0.0, 0.0, 0.0, 0.0, 0.0, 0.0, 0.0, 0.0, 0.0, 1.657492801093241E9, 0.0, 2022-07-10 18:40:01.093
29.0, 35324.09344006699, 28840.366463704882, -11997.723519530717, -37852.03103447331, 12225.688961230393, 23772.5107398642, -11633.59125060931, 15623.847022515181, -0.006, 0.9580000000000001, 0.23800000000000002, 192.0, 0.0, 0.0, 0.0, 0.0, 0.0, 0.0, 0.0, 0.0, 0.0, 1.657492801100273E9, 0.0, 2022-07-10 18:40:01.100
30.0, 33568.4756718249, 28751.853555661866, -11806.794918393483, -37674.2452590758, 12431.615582897137, 22076.907405484606, -11434.191338323515, 15439.378075525532, -0.002, 0.9400000000000001, 0.26, 192.0, 255.0, 240.0, 29.0, 96.0, 8.0, 32.0, 0.0, 0.0, 0.0, 1.657492801100291E9, 0.0, 2022-07-10 18:40:01.100
31.0, 34674.32822875121, 28955.857927305453, -11757.263452680523, -37010.26433828644, 12315.38651172954, 24570.33390645193, -11549.749857157452, 16420.798471069156, -0.002, 0.9400000000000001, 0.26, 192.0, 0.0, 0.0, 0.0, 0.0, 0.0, 0.0, 0.0, 0.0, 0.0, 1.657492801108553E9, 0.0, 2022-07-10 18:40:01.108
32.0, 36588.44221692589, 29068.063684471093, -11958.675021967296, -37144.12893582928, 12089.544485753118, 26584.561358041927, -11769.109877241835, 16701.134050027616, -0.002, 0.9400000000000001, 0.26, 192.0, 0.0, 0.0, 0.0, 0.0, 0.0, 0.0, 0.0, 0.0, 0.0, 1.657492801108592E9, 0.0, 2022-07-10 18:40:01.108
33.0, 35703.38019172909, 28883.840606670456, -12023.271563443133, -37796.844577413154, 12188.31684450112, 24335.305313504377, -11677.02069008597, 15761.98080324898, -0.002, 0.9400000000000001, 0.26, 192.0, 0.0, 0.0, 0.0, 0.0, 0.0, 0.0, 0.0, 0.0, 0.0, 1.657492801116498E9, 0.0, 2022-07-10 18:40:01.116
34.0, 33726.8601330352, 28763.185890100707, -11843.787055467017, -37770.357760233615, 12412.907172788046, 22064.636297778645, -11456.990117667929, 15362.689240299374, -0.002, 0.9400000000000001, 0.26, 192.0, 0.0, 0.0, 0.0, 0.0, 0.0, 0.0, 0.0, 0.0, 0.0, 1.657492801116581E9, 0.0, 2022-07-10 18:40:01.116
35.0, 34282.435093216314, 28914.171923896305, -11743.986516474071, -37101.615917875286, 12345.9636981444, 23930.738738863318, -11508.80146131533, 16228.662875731336, -0.002, 0.9400000000000001, 0.26, 192.0, 0.0, 0.0, 0.0, 0.0, 0.0, 0.0, 0.0, 0.0, 0.0, 1.657492801123502E9, 0.0, 2022-07-10 18:40:01.123
36.0, 36405.85081647048, 29054.09384418653, -11918.777158114572, -37041.73559447951, 12093.724261966261, 26529.933694593157, -11766.092391740369, 16771.609100295198, -0.002, 0.9400000000000001, 0.26, 192.0, 0.0, 0.0, 0.0, 0.0, 0.0, 0.0, 0.0, 0.0, 0.0, 1.657492801123558E9, 0.0, 2022-07-10 18:40:01.123
37.0, 36059.13055647976, 28900.939691178763, -12036.682610116317, -37700.53091055524, 12121.261611135198, 24904.380727336495, -11761.689098082674, 15943.812244392902, -0.002, 0.9400000000000001, 0.26, 192.0, 0.0, 0.0, 0.0, 0.0, 0.0, 0.0, 0.0, 0.0, 0.0, 1.657492801130095E9, 0.0, 2022-07-10 18:40:01.130
38.0, 33971.99171447656, 28730.17236354022, -11891.39627115682, -37851.82986877321, 12356.357259316119, 22185.246310859482, -11523.732426611476, 15315.862335665506, -0.002, 0.9400000000000001, 0.26, 192.0, 0.0, 0.0, 0.0, 0.0, 0.0, 0.0, 0.0, 0.0, 0.0, 1.6574928011383E9, 0.0, 2022-07-10 18:40:01.138
39.0, 33955.540830557446, 28848.636609153345, -11752.346068900355, -37227.009204269554, 12367.197855376942, 23317.8539058988, -11518.591525386755, 16004.40782361124, -0.002, 0.9400000000000001, 0.26, 192.0, 0.0, 0.0, 0.0, 0.0, 0.0, 0.0, 0.0, 0.0, 0.0, 1.65749280113833E9, 0.0, 2022-07-10 18:40:01.138
40.0, 36127.683356724185, 29056.731350032253, -11890.882181034349, -36981.34118096127, 12112.58913428654, 26309.38903205264, -11751.65316482224, 16758.7568472334, 0.012, 0.926, 0.276, 192.0, 0.0, 96.0, 28.0, 240.0, 8.0, 160.0, 0.0, 0.0, 0.0, 1.657492801145984E9, 0.0, 2022-07-10 18:40:01.145
41.0, 36336.56040865903, 28964.82097683203, -12034.782711837615, -37595.38830463747, 12107.001198172713, 25429.780832502944, -11766.964109774126, 16135.903136241812, 0.012, 0.926, 0.276, 192.0, 0.0, 0.0, 0.0, 0.0, 0.0, 0.0, 0.0, 0.0, 0.0, 1.657492801146002E9, 0.0, 2022-07-10 18:40:01.146
42.0, 34282.61390717196, 28759.29668656548, -11923.247507005633, -37882.38470344361, 12342.275660309275, 22467.16886367427, -11539.021019818905, 15355.424923351398, 0.012, 0.926, 0.276, 192.0, 0.0, 0.0, 0.0, 0.0, 0.0, 0.0, 0.0, 0.0, 0.0, 1.657492801152835E9, 0.0, 2022-07-10 18:40:01.152
43.0, 33710.27513864936, 28814.97488200365, -11760.750324815552, -37343.03710973705, 12405.732262817892, 22803.830838660102, -11459.024126413362, 15833.70755120606, 0.012, 0.926, 0.276, 192.0, 0.0, 0.0, 0.0, 0.0, 0.0, 0.0, 0.0, 0.0, 0.0, 1.657492801152888E9, 0.0, 2022-07-10 18:40:01.152
44.0, 35758.74546274489, 29036.61478002248, -11852.370125337855, -36939.07403219629, 12167.574425646595, 25954.935068480383, -11684.955559367605, 16747.670381983564, 0.012, 0.926, 0.276, 192.0, 0.0, 0.0, 0.0, 0.0, 0.0, 0.0, 0.0, 0.0, 0.0, 1.657492801160566E9, 0.0, 2022-07-10 18:40:01.160
45.0, 36523.577454516584, 28990.525482955636, -12028.61363036795, -37461.85898326147, 12081.2519885602, 25903.45900099981, -11776.150676745257, 16339.058141596097, 0.012, 0.926, 0.276, 192.0, 0.0, 0.0, 0.0, 0.0, 0.0, 0.0, 0.0, 0.0, 0.0, 1.657492801160594E9, 0.0, 2022-07-10 18:40:01.160
46.0, 34640.82296381271, 28768.79617795899, -11964.50882727013, -37897.673296651046, 12289.950226539402, 22866.639240579516, -11575.163790603137, 15434.460691745364, 0.012, 0.926, 0.276, 192.0, 0.0, 0.0, 0.0, 0.0, 0.0, 0.0, 0.0, 0.0, 0.0, 1.657492801168853E9, 0.0, 2022-07-10 18:40:01.168
47.0, 33562.708921755424, 28782.31898335445, -11785.583112905397, -37473.34777991149, 12409.93439077549, 22399.756002397062, -11444.674306473054, 15673.758467883883, 0.012, 0.926, 0.276, 192.0, 0.0, 0.0, 0.0, 0.0, 0.0, 0.0, 0.0, 0.0, 0.0, 1.657492801168885E9, 0.0, 2022-07-10 18:40:01.168
48.0, 35340.164344330355, 29022.711994971276, -11816.048540597982, -36936.615340306205, 12226.94065891989, 25467.66703935469, -11621.767177792452, 16661.72792455291, 0.012, 0.926, 0.276, 192.0, 0.0, 0.0, 0.0, 0.0, 0.0, 0.0, 0.0, 0.0, 0.0, 1.657492801175972E9, 0.0, 2022-07-10 18:40:01.175
49.0, 36609.5422636917, 29033.194963120815, -12008.273542913621, -37319.791295503535, 12097.211134101288, 26256.840080838214, -11769.109877241835, 16523.191812418918, 0.012, 0.926, 0.276, 192.0, 0.0, 0.0, 0.0, 0.0, 0.0, 0.0, 0.0, 0.0, 0.0, 1.657492801176085E9, 0.0, 2022-07-10 18:40:01.176
50.0, 35024.58006436587, 28804.31309989847, -11991.643845038872, -37859.7870897993, 12270.23598792982, 23373.286232147962, -11606.232715396014, 15561.03862059577, 0.016, 0.926, 0.29, 192.0, 0.0, 128.0, 28.0, 240.0, 9.0, 16.0, 0.0, 0.0, 0.0, 1.657492801183308E9, 0.0, 2022-07-10 18:40:01.183
51.0, 33515.882017121556, 28758.44732027618, -11797.876572355815, -37573.8188712381, 12442.836158613702, 22145.393150495667, -11438.035838369828, 15552.567309447208, 0.016, 0.926, 0.29, 192.0, 0.0, 0.0, 0.0, 0.0, 0.0, 0.0, 0.0, 0.0, 0.0, 1.657492801183333E9, 0.0, 2022-07-10 18:40:01.183
52.0, 34918.543388669896, 28970.3865612014, -11786.164258261235, -36954.56379110382, 12275.086316476622, 24931.627503827516, -11593.849848967773, 16554.394847678526, 0.016, 0.926, 0.29, 192.0, 0.0, 0.0, 0.0, 0.0, 0.0, 0.0, 0.0, 0.0, 0.0, 1.657492801190505E9, 0.0, 2022-07-10 18:40:01.190
53.0, 36605.00485956727, 29047.90241097241, -11990.012167693636, -37202.77991328, 12078.748593181204, 26481.38570563623, -11799.843525867884, 16657.05640996175, 0.016, 0.926, 0.29, 192.0, 0.0, 0.0, 0.0, 0.0, 0.0, 0.0, 0.0, 0.0, 0.0, 1.657492801190535E9, 0.0, 2022-07-10 18:40:01.190
54.0, 35423.17872323737, 28858.20315578022, -12015.56021160605, -37814.68126948849, 12220.637466983495, 23915.003110766782, -11677.378317997256, 15696.043157105823, 0.016, 0.926, 0.29, 192.0, 0.0, 0.0, 0.0, 0.0, 0.0, 0.0, 0.0, 0.0, 0.0, 1.657492801198811E9, 0.0, 2022-07-10 18:40:01.198
55.0, 33603.45615189745, 28753.999323129574, -11831.650058227786, -37685.86816619255, 12425.580611894204, 22003.794849371297, -11476.011452199395, 15435.846499901594, 0.016, 0.926, 0.29, 192.0, 0.0, 0.0, 0.0, 0.0, 0.0, 0.0, 0.0, 0.0, 0.0, 1.65749280120514E9, 0.0, 2022-07-10 18:40:01.205
56.0, 34513.418020417455, 28938.33415965249, -11766.829999307394, -37027.072850116834, 12319.029846075755, 24275.89437674217, -11589.178334376615, 16366.416676809393, 0.016, 0.926, 0.29, 192.0, 0.0, 0.0, 0.0, 0.0, 0.0, 0.0, 0.0, 0.0, 0.0, 1.657492801205182E9, 0.0, 2022-07-10 18:40:01.205
57.0, 36505.472541507785, 29076.13266421946, -11948.594385217952, -37083.712170566585, 12095.177125355856, 26519.093098532332, -11825.81625292495, 16749.346762817713, 0.016, 0.926, 0.29, 192.0, 0.0, 0.0, 0.0, 0.0, 0.0, 0.0, 0.0, 0.0, 0.0, 1.657492801213012E9, 0.0, 2022-07-10 18:40:01.213
58.0, 35811.71909710397, 28905.991185425664, -12026.892546044892, -37739.53470462975, 12175.777515861693, 24479.496416985563, -11746.154635686236, 15862.876577720235, 0.016, 0.926, 0.29, 192.0, 0.0, 0.0, 0.0, 0.0, 0.0, 0.0, 0.0, 0.0, 0.0, 1.657492801213035E9, 0.0, 2022-07-10 18:40:01.213
59.0, 33783.79002616287, 28758.9390586542, -11860.349698108399, -37777.6667806705, 12403.40768139454, 22032.919172396563, -11523.151281255638, 15372.926339259904, 0.016, 0.926, 0.29, 192.0, 0.0, 0.0, 0.0, 0.0, 0.0, 0.0, 0.0, 0.0, 0.0, 1.657492801220987E9, 0.0, 2022-07-10 18:40:01.220
60.0, 34124.60942561739, 28911.601473283947, -11753.106028211836, -37133.601264190824, 12361.654622752027, 23640.948372000264, -11567.161866088136, 16169.67662211378, 0.012, 0.918, 0.292, 192.0, 0.0, 96.0, 28.0, 176.0, 9.0, 32.0, 0.0, 0.0, 0.0, 1.657492801221021E9, 0.0, 2022-07-10 18:40:01.221
61.0, 36259.78216645505, 29093.09763826104, -11911.624599888873, -37006.46454172904, 12121.01574194619, 26406.127382055212, -11810.550011461975, 16791.055117971315, 0.012, 0.918, 0.292, 192.0, 0.0, 0.0, 0.0, 0.0, 0.0, 0.0, 0.0, 0.0, 0.0, 1.657492801228518E9, 0.0, 2022-07-10 18:40:01.228
62.0, 36116.798057174456, 28955.053264505063, -12045.936232320813, -37654.665130932946, 12128.25770714971, 25051.92459248598, -11810.997046351082, 16033.80036756997, 0.012, 0.918, 0.292, 192.0, 0.0, 0.0, 0.0, 0.0, 0.0, 0.0, 0.0, 0.0, 0.0, 1.657492801228589E9, 0.0, 2022-07-10 18:40:01.228
63.0, 34032.4308314837, 28770.36080007086, -11905.790794586039, -37854.377967641114, 12369.20951237792, 22216.33758739681, -11559.271700295414, 15345.970135446803, 0.012, 0.918, 0.292, 192.0, 0.0, 0.0, 0.0, 0.0, 0.0, 0.0, 0.0, 0.0, 0.0, 1.657492801235722E9, 0.0, 2022-07-10 18:40:01.235
64.0, 33826.32539586132, 28873.849376898932, -11751.65316482224, -37250.65734990327, 12396.612751080127, 23080.72424897245, -11516.758682341419, 15970.522579016993, 0.012, 0.918, 0.292, 192.0, 0.0, 0.0, 0.0, 0.0, 0.0, 0.0, 0.0, 0.0, 0.0, 1.657492801235772E9, 0.0, 2022-07-10 18:40:01.235
65.0, 35971.13173855922, 29086.32505969108, -11873.179599425746, -36946.13718344417, 12152.956384772824, 26152.815062143214, -11773.110839499335, 16777.956995720506, 0.012, 0.918, 0.292, 192.0, 0.0, 0.0, 0.0, 0.0, 0.0, 0.0, 0.0, 0.0, 0.0, 1.657492801243615E9, 0.0, 2022-07-10 18:40:01.243
66.0, 36394.09379888699, 29002.818942406055, -12045.91388057636, -37537.65374870941, 12085.320006051064, 25568.562813825945, -11850.380820081333, 16206.713462676224, 0.012, 0.918, 0.292, 192.0, 0.0, 0.0, 0.0, 0.0, 0.0, 0.0, 0.0, 0.0, 0.0, 1.657492801243646E9, 0.0, 2022-07-10 18:40:01.243
67.0, 34384.157882232415, 28797.65228005079, -11945.018106105103, -37886.16214825656, 12320.996799587823, 22549.333876291978, -11610.300732886879, 15365.505560100743, 0.012, 0.918, 0.292, 192.0, 0.0, 0.0, 0.0, 0.0, 0.0, 0.0, 0.0, 0.0, 0.0, 1.657492801251625E9, 0.0, 2022-07-10 18:40:01.251
68.0, 33623.14803876258, 28861.131234303863, -11761.309118426934, -37382.353828233936, 12421.579649636704, 22598.015975715636, -11505.828679302775, 15756.951660746536, 0.012, 0.918, 0.292, 192.0, 0.0, 0.0, 0.0, 0.0, 0.0, 0.0, 0.0, 0.0, 0.0, 1.657492801251658E9, 0.0, 2022-07-10 18:40:01.251
69.0, 35601.500940501806, 29089.588414381557, -11829.191366337702, -36922.60079653273, 12190.306149757642, 25752.227098015203, -11705.809736944406, 16711.482907710422, 0.012, 0.918, 0.292, 192.0, 0.0, 0.0, 0.0, 0.0, 0.0, 0.0, 0.0, 0.0, 0.0, 1.657492801257898E9, 0.0, 2022-07-10 18:40:01.257
70.0, 36562.670655568916, 29069.740065305243, -12015.895487772881, -37410.82995067, 12079.419145514865, 25992.374240443023, -11818.976619121626, 16396.01038646822, 0.006, 0.93, 0.29, 192.0, 0.0, 48.0, 29.0, 16.0, 9.0, 16.0, 0.0, 0.0, 0.0, 1.657492801265303E9, 0.0, 2022-07-10 18:40:01.265
71.0, 34770.73130258695, 28852.145833032828, -11959.300870812043, -37888.576136657735, 12289.436136416929, 22986.913977493525, -11621.878936514728, 15460.858101947082, 0.006, 0.93, 0.29, 192.0, 0.0, 0.0, 0.0, 0.0, 0.0, 0.0, 0.0, 0.0, 0.0, 1.657492801265327E9, 0.0, 2022-07-10 18:40:01.265
72.0, 33522.09580208013, 28883.125350847884, -11769.109877241835, -37512.50803619719, 12441.56210917975, 22241.86327956477, -11469.328280607258, 15613.095833432179, 0.006, 0.93, 0.29, 192.0, 0.0, 0.0, 0.0, 0.0, 0.0, 0.0, 0.0, 0.0, 0.0, 1.657492801273333E9, 0.0, 2022-07-10 18:40:01.273
73.0, 35197.135531560845, 29134.023682358707, -11790.232275752101, -36935.67656703908, 12251.929909220924, 25247.32354251427, -11649.483340917033, 16618.790223454263, 0.006, 0.93, 0.29, 192.0, 0.0, 0.0, 0.0, 0.0, 0.0, 0.0, 0.0, 0.0, 0.0, 1.657492801273393E9, 0.0, 2022-07-10 18:40:01.273
74.0, 36639.38184253953, 29165.04790366267, -11999.645769553874, -37290.01877188907, 12070.880779132936, 26310.35015706422, -11829.10195935988, 16537.854556781596, 0.006, 0.93, 0.29, 192.0, 0.0, 0.0, 0.0, 0.0, 0.0, 0.0, 0.0, 0.0, 0.0, 1.657492801281234E9, 0.0, 2022-07-10 18:40:01.281
75.0, 35182.15986277579, 28955.38854067189, -11998.461127097742, -37864.34684566818, 12237.915365447447, 23524.60754211039, -11671.678623161153, 15573.756763190839, 0.006, 0.93, 0.29, 192.0, 0.0, 0.0, 0.0, 0.0, 0.0, 0.0, 0.0, 0.0, 0.0, 1.657492801281255E9, 0.0, 2022-07-10 18:40:01.281
76.0, 33551.4212908055, 28891.216682340706, -11805.766738148539, -37631.21815099933, 12429.73803636289, 22053.259259850893, -11484.572170325777, 15472.749229997306, 0.006, 0.93, 0.29, 192.0, 0.0, 0.0, 0.0, 0.0, 0.0, 0.0, 0.0, 0.0, 0.0, 1.657492801287929E9, 0.0, 2022-07-10 18:40:01.287
77.0, 34788.94797431803, 29098.90909181942, -11769.735726086585, -36987.286744986384, 12290.464316661873, 24657.416302849808, -11605.830383995817, 16449.721628394323, 0.006, 0.93, 0.29, 192.0, 0.0, 0.0, 0.0, 0.0, 0.0, 0.0, 0.0, 0.0, 0.0, 1.657492801287959E9, 0.0, 2022-07-10 18:40:01.287
78.0, 36609.788132880705, 29195.602738333077, -11973.762449474627, -37161.20566859313, 12068.690308176316, 26468.980487463534, -11831.247726827589, 16651.28965989228, 0.006, 0.93, 0.29, 192.0, 0.0, 0.0, 0.0, 0.0, 0.0, 0.0, 0.0, 0.0, 0.0, 1.657492801296304E9, 0.0, 2022-07-10 18:40:01.296
79.0, 35599.154007334, 29001.008451105172, -12026.66902860034, -37797.671591958, 12179.487905441274, 24098.220360066935, -11729.457882578121, 15711.979950902458, 0.006, 0.93, 0.29, 192.0, 0.0, 0.0, 0.0, 0.0, 0.0, 0.0, 0.0, 0.0, 0.0, 1.657492801296364E9, 0.0, 2022-07-10 18:40:01.296
80.0, 33676.389894055115, 28872.485920487157, -11844.815235711962, -37738.32771042916, 12408.481527385895, 21984.460590417457, -11505.113423480205, 15360.766990276217, 0.004, 0.9400000000000001, 0.29, 192.0, 0.0, 32.0, 29.0, 96.0, 9.0, 16.0, 0.0, 0.0, 0.0, 1.65749280130411E9, 0.0, 2022-07-10 18:40:01.304
81.0, 34392.38332419197, 29058.027751210662, -11745.975821730593, -37062.43330984513, 12340.711038197403, 24035.814289547718, -11540.228014019493, 16261.586995314003, 0.004, 0.9400000000000001, 0.29, 192.0, 0.0, 0.0, 0.0, 0.0, 0.0, 0.0, 0.0, 0.0, 0.0, 1.657492801304143E9, 0.0, 2022-07-10 18:40:01.304
82.0, 36470.69322713533, 29212.277139696736, -11921.951105827226, -37048.50817304947, 12103.357863826497, 26474.568423577362, -11779.123458757813, 16731.152442831095, 0.004, 0.9400000000000001, 0.29, 192.0, 0.0, 0.0, 0.0, 0.0, 0.0, 0.0, 0.0, 0.0, 0.0, 1.657492801312097E9, 0.0, 2022-07-10 18:40:01.312
83.0, 35973.41161649366, 29049.17646040636, -12024.679723343817, -37706.14119841352, 12156.867940052503, 24674.805960036036, -11751.072019466403, 15889.229284433042, 0.004, 0.9400000000000001, 0.29, 192.0, 0.0, 0.0, 0.0, 0.0, 0.0, 0.0, 0.0, 0.0, 0.0, 1.657492801312124E9, 0.0, 2022-07-10 18:40:01.312
84.0, 33896.77809438445, 28883.930013648274, -11874.677166304251, -37807.46165602942, 12385.503934085838, 22077.577957818266, -11523.978295800483, 15323.75250145823, 0.004, 0.9400000000000001, 0.29, 192.0, 0.0, 0.0, 0.0, 0.0, 0.0, 0.0, 0.0, 0.0, 0.0, 1.657492801317916E9, 0.0, 2022-07-10 18:40:01.317
85.0, 34054.29083756099, 29025.88594268393, -11737.057475692925, -37157.9199621582, 12387.761460275826, 23434.105328810852, -11505.247533946937, 16074.32408026744, 0.004, 0.9400000000000001, 0.29, 192.0, 0.0, 0.0, 0.0, 0.0, 0.0, 0.0, 0.0, 0.0, 0.0, 1.657492801325549E9, 0.0, 2022-07-10 18:40:01.325
86.0, 36235.99991035461, 29220.904913056485, -11883.997843742114, -36961.96221851852, 12139.858262522015, 26320.699014747028, -11732.140091912759, 16768.79278049383, 0.004, 0.9400000000000001, 0.29, 192.0, 0.0, 0.0, 0.0, 0.0, 0.0, 0.0, 0.0, 0.0, 0.0, 1.657492801325574E9, 0.0, 2022-07-10 18:40:01.325
87.0, 36281.70922776571, 29103.13357152147, -12032.413426925354, -37597.64583082746, 12126.201346659822, 25212.56657988627, -11760.057420737437, 16064.93634759621, 0.004, 0.9400000000000001, 0.29, 192.0, 0.0, 0.0, 0.0, 0.0, 0.0, 0.0, 0.0, 0.0, 0.0, 1.657492801333445E9, 0.0, 2022-07-10 18:40:01.333
88.0, 34197.990202664165, 28906.348813336946, -11905.634332374852, -37850.68992980599, 12361.54286402975, 22313.053585654925, -11535.75766512843, 15318.186917088857, 0.004, 0.9400000000000001, 0.29, 192.0, 0.0, 0.0, 0.0, 0.0, 0.0, 0.0, 0.0, 0.0, 0.0, 1.657492801333472E9, 0.0, 2022-07-10 18:40:01.333
89.0, 33777.77740690439, 28984.244642763693, -11740.633754805775, -37280.005190373085, 12417.109300745644, 22887.024031522757, -11469.93177770755, 15864.910586465669, 0.004, 0.9400000000000001, 0.29, 192.0, 0.0, 0.0, 0.0, 0.0, 0.0, 0.0, 0.0, 0.0, 0.0, 1.657492801340075E9, 0.0, 2022-07-10 18:40:01.340
90.0, 35883.2670311054, 29208.41028790597, -11837.953250164182, -36917.43754356355, 12190.373204991009, 25988.440333418886, -11693.404518771711, 16732.27003005386, 0.004, 0.9400000000000001, 0.29, 192.0, 0.0, 0.0, 29.0, 208.0, 8.0, 240.0, 0.0, 0.0, 0.0, 1.6574928013401E9, 0.0, 2022-07-10 18:40:01.340
91.0, 36497.023582103684, 29152.48622327879, -12012.90035401587, -37467.62573333093, 12114.44432907633, 25687.094114672436, -11784.644339638275, 16248.69003876329, 0.004, 0.9400000000000001, 0.29, 192.0, 0.0, 0.0, 0.0, 0.0, 0.0, 0.0, 0.0, 0.0, 0.0, 1.657492801348055E9, 0.0, 2022-07-10 18:40:01.348
92.0, 34545.850401622105, 28936.367206140425, -11935.786835645062, -37862.75987181185, 12331.368009015085, 22676.53765398713, -11575.901398170161, 15374.647423582963, 0.004, 0.9400000000000001, 0.29, 192.0, 0.0, 0.0, 0.0, 0.0, 0.0, 0.0, 0.0, 0.0, 0.0, 1.657492801348077E9, 0.0, 2022-07-10 18:40:01.348
93.0, 33607.65827985505, 28952.885145292898, -11762.180836460691, -37406.046677356564, 12422.898402559567, 22453.288430367524, -11445.926004162551, 15687.1024593237, 0.004, 0.9400000000000001, 0.29, 192.0, 0.0, 0.0, 0.0, 0.0, 0.0, 0.0, 0.0, 0.0, 0.0, 1.6574928013563E9, 0.0, 2022-07-10 18:40:01.356
94.0, 35500.11342765253, 29186.21500566185, -11810.974694606626, -36909.45797079301, 12219.765748949738, 25547.395711826768, -11647.35992519378, 16647.48986333488, 0.004, 0.9400000000000001, 0.29, 192.0, 0.0, 0.0, 0.0, 0.0, 0.0, 0.0, 0.0, 0.0, 0.0, 1.657492801356342E9, 0.0, 2022-07-10 18:40:01.356
95.0, 36650.334197322634, 29192.317031898147, -12005.099595200969, -37343.2159236927, 12096.62998874545, 26073.77929374925, -11785.158429760746, 16411.075462231096, 0.004, 0.9400000000000001, 0.29, 192.0, 0.0, 0.0, 0.0, 0.0, 0.0, 0.0, 0.0, 0.0, 0.0, 1.657492801363031E9, 0.0, 2022-07-10 18:40:01.363
96.0, 34961.43638627963, 28969.626601889922, -11972.756620974138, -37859.272999676825, 12282.23887470232, 23136.15657522161, -11606.791509007397, 15463.182683370434, 0.004, 0.9400000000000001, 0.29, 192.0, 0.0, 0.0, 0.0, 0.0, 0.0, 0.0, 0.0, 0.0, 0.0, 1.657492801363096E9, 0.0, 2022-07-10 18:40:01.363
97.0, 33564.13943340057, 28933.908514250343, -11782.207999492646, -37534.837428908046, 12439.639859156592, 22128.338769476268, -11439.600460481699, 15521.610143376607, 0.004, 0.9400000000000001, 0.29, 192.0, 0.0, 0.0, 0.0, 0.0, 0.0, 0.0, 0.0, 0.0, 0.0, 1.657492801371139E9, 0.0, 2022-07-10 18:40:01.371
98.0, 35099.816036202435, 29153.29088607918, -11782.81149659294, -36934.40251760513, 12273.834618787125, 25000.113248838574, -11599.549543803876, 16518.430890849937, 0.004, 0.9400000000000001, 0.29, 192.0, 0.0, 0.0, 0.0, 0.0, 0.0, 0.0, 0.0, 0.0, 0.0, 1.657492801371197E9, 0.0, 2022-07-10 18:40:01.371
99.0, 36687.795721029725, 29207.672680338943, -11989.967464204725, -37229.043213014986, 12081.855485660493, 26326.979854938967, -11798.077738055914, 16545.94588827442, 0.004, 0.9400000000000001, 0.29, 192.0, 0.0, 0.0, 0.0, 0.0, 0.0, 0.0, 0.0, 0.0, 0.0, 1.657492801377618E9, 0.0, 2022-07-10 18:40:01.377
100.0, 35376.21770813676, 28996.582805703023, -12009.055853969558, -37832.27209237481, 12221.106853617055, 23675.839445094996, -11668.415268470677, 15583.725641217905, 0.004, 0.9400000000000001, 0.29, 192.0, 0.0, 0.0, 29.0, 208.0, 8.0, 192.0, 0.0, 0.0, 0.0, 1.657492801385808E9, 0.0, 2022-07-10 18:40:01.385
101.0, 33621.18108525051, 28914.596607040956, -11810.594714950887, -37656.341511767096, 12427.279344472809, 21964.187558196492, -11451.26807108737, 15387.05264175566, 0.004, 0.9400000000000001, 0.29, 192.0, 0.0, 0.0, 0.0, 0.0, 0.0, 0.0, 0.0, 0.0, 0.0, 1.657492801385847E9, 0.0, 2022-07-10 18:40:01.385
102.0, 34697.0376011178, 29117.52809495069, -11750.066190965914, -36982.03408503939, 12318.471052464372, 24410.518933596486, -11554.801351404352, 16358.973545905776, 0.004, 0.9400000000000001, 0.29, 192.0, 0.0, 0.0, 0.0, 0.0, 0.0, 0.0, 0.0, 0.0, 0.0, 1.657492801392787E9, 0.0, 2022-07-10 18:40:01.392
103.0, 36640.58883674012, 29239.769785376764, -11945.487492738665, -37095.22331896106, 12094.663035233383, 26468.935783974623, -11782.990310548581, 16667.472322877922, 0.004, 0.9400000000000001, 0.29, 192.0, 0.0, 0.0, 0.0, 0.0, 0.0, 0.0, 0.0, 0.0, 0.0, 1.657492801392806E9, 0.0, 2022-07-10 18:40:01.392
104.0, 35797.61514635267, 29057.491309343735, -12016.27546742862, -37751.22466697987, 12188.115678801023, 24267.400713849154, -11700.422966530678, 15750.849634510236, 0.004, 0.9400000000000001, 0.29, 192.0, 0.0, 0.0, 0.0, 0.0, 0.0, 0.0, 0.0, 0.0, 0.0, 1.657492801400713E9, 0.0, 2022-07-10 18:40:01.400
105.0, 33807.99696540797, 28914.574255296502, -11847.96683168016, -37745.100288999114, 12412.415434410028, 21973.19531121198, -11483.141658680637, 15321.942010157349, 0.004, 0.9400000000000001, 0.29, 192.0, 0.0, 0.0, 0.0, 0.0, 0.0, 0.0, 0.0, 0.0, 0.0, 1.65749280140076E9, 0.0, 2022-07-10 18:40:01.400
106.0, 34345.73523351374, 29082.637021855953, -11751.675516566696, -37083.26513567747, 12341.850977164624, 23803.37849895698, -11540.406827975134, 16170.011898280609, 0.004, 0.9400000000000001, 0.29, 192.0, 0.0, 0.0, 0.0, 0.0, 0.0, 0.0, 0.0, 0.0, 0.0, 1.657492801408431E9, 0.0, 2022-07-10 18:40:01.408
107.0, 36482.69611390783, 29255.617172195576, -11921.660533149307, -37011.069001086835, 12102.195573114823, 26419.404318261662, -11782.409165192743, 16718.59076244721, 0.004, 0.9400000000000001, 0.29, 192.0, 0.0, 0.0, 0.0, 0.0, 0.0, 0.0, 0.0, 0.0, 0.0, 1.657492801408449E9, 0.0, 2022-07-10 18:40:01.408
108.0, 36175.04670322499, 29104.698193633343, -12035.565022893552, -37664.11991883754, 12142.428713134375, 24844.05336905162, -11753.597766589854, 15918.979456303055, 0.004, 0.9400000000000001, 0.29, 192.0, 0.0, 0.0, 0.0, 0.0, 0.0, 0.0, 0.0, 0.0, 0.0, 1.657492801416452E9, 0.0, 2022-07-10 18:40:01.416
109.0, 34087.61728854386, 28922.620883300413, -11892.267989190577, -37819.509246290836, 12376.630291537082, 22121.99087405096, -11518.815042831307, 15280.725393381763, 0.004, 0.9400000000000001, 0.29, 192.0, 0.0, 0.0, 0.0, 0.0, 0.0, 0.0, 0.0, 0.0, 0.0, 1.657492801416508E9, 0.0, 2022-07-10 18:40:01.416
110.0, 34035.06833732943, 29037.665312011875, -11752.70369681164, -37199.673020800714, 12381.704137528437, 23205.983424899987, -11484.549818581321, 15961.44777076814, 0.006, 0.9460000000000001, 0.268, 192.0, 0.0, 48.0, 29.0, 144.0, 8.0, 96.0, 0.0, 0.0, 0.0, 1.657492801422967E9, 0.0, 2022-07-10 18:40:01.422
111.0, 36211.07771528694, 29243.390767978522, -11880.3545093959, -36941.89035199766, 12139.724152055282, 26208.940292470492, -11718.393769072743, 16731.97945737594, 0.006, 0.9460000000000001, 0.268, 192.0, 0.0, 0.0, 0.0, 0.0, 0.0, 0.0, 0.0, 0.0, 0.0, 1.657492801423022E9, 0.0, 2022-07-10 18:40:01.423
112.0, 36472.481366691754, 29148.842888932573, -12032.033447269612, -37545.72272845778, 12104.073119649067, 25389.63709946121, -11762.605519605342, 16114.937199942733, 0.006, 0.9460000000000001, 0.268, 192.0, 0.0, 0.0, 0.0, 0.0, 0.0, 0.0, 0.0, 0.0, 0.0, 1.657492801431028E9, 0.0, 2022-07-10 18:40:01.431
113.0, 34423.54165596267, 28946.82782254551, -11922.845175605438, -37850.68992980599, 12337.224166062375, 22415.044595604493, -11534.796540116851, 15318.991579889249, 0.006, 0.9460000000000001, 0.268, 192.0, 0.0, 0.0, 0.0, 0.0, 0.0, 0.0, 0.0, 0.0, 0.0, 1.65749280143106E9, 0.0, 2022-07-10 18:40:01.431
114.0, 33805.851197940254, 29013.59248323351, -11744.411199618722, -37312.97401344467, 12423.8818793156, 22692.80972395059, -11443.22144308346, 15787.17121925011, 0.006, 0.9460000000000001, 0.268, 192.0, 0.0, 0.0, 0.0, 0.0, 0.0, 0.0, 0.0, 0.0, 0.0, 1.657492801438078E9, 0.0, 2022-07-10 18:40:01.438
115.0, 35856.22142031448, 29237.802831864698, -11833.661715228764, -36891.68833395104, 12188.115678801023, 25857.347352188513, -11689.828239658862, 16697.758936614864, 0.006, 0.9460000000000001, 0.268, 192.0, 0.0, 0.0, 0.0, 0.0, 0.0, 0.0, 0.0, 0.0, 0.0, 1.657492801438098E9, 0.0, 2022-07-10 18:40:01.438
116.0, 36666.91919170847, 29184.58332831661, -12024.478557643719, -37418.76481995163, 12079.10622109249, 25852.228802708247, -11809.298313772479, 16286.8444665485, 0.006, 0.9460000000000001, 0.268, 192.0, 0.0, 0.0, 0.0, 0.0, 0.0, 0.0, 0.0, 0.0, 0.0, 1.657492801446366E9, 0.0, 2022-07-10 18:40:01.446
117.0, 34788.0092010509, 28960.641200618888, -11962.899501669348, -37862.424595645025, 12288.76558408327, 22811.810411430648, -11621.364846392256, 15359.448237353354, 0.006, 0.9460000000000001, 0.268, 192.0, 0.0, 0.0, 0.0, 0.0, 0.0, 0.0, 0.0, 0.0, 0.0, 1.657492801452605E9, 0.0, 2022-07-10 18:40:01.452
118.0, 33684.66003950358, 28970.073636779027, -11771.680327854196, -37437.07089866053, 12427.033475283799, 22300.40249829322, -11455.090219389227, 15591.705213988449, 0.006, 0.9460000000000001, 0.268, 192.0, 0.0, 0.0, 0.0, 0.0, 0.0, 0.0, 0.0, 0.0, 0.0, 1.657492801452628E9, 0.0, 2022-07-10 18:40:01.452
119.0, 35471.43613951637, 29199.670755823943, -11799.038863067492, -36899.93612765505, 12229.488757787796, 25363.597317170777, -11614.882840500217, 16593.28688303076, 0.006, 0.9460000000000001, 0.268, 192.0, 0.0, 0.0, 0.0, 0.0, 0.0, 0.0, 0.0, 0.0, 0.0, 1.657492801460781E9, 0.0, 2022-07-10 18:40:01.460
120.0, 36782.880041942604, 29215.83106706513, -11999.623417809418, -37292.455112034695, 12067.1480378089, 26181.782922957293, -11791.260455997046, 16441.742055623778, 0.024, 0.9420000000000001, 0.27, 192.0, 0.0, 192.0, 29.0, 112.0, 8.0, 112.0, 0.0, 0.0, 0.0, 1.657492801460848E9, 0.0, 2022-07-10 18:40:01.460
121.0, 35209.518397989086, 29000.248491793693, -11983.463106568232, -37837.90473197755, 12244.084446917112, 23298.81021962288, -11623.085930715315, 15472.01162243028, 0.024, 0.9420000000000001, 0.27, 192.0, 0.0, 0.0, 0.0, 0.0, 0.0, 0.0, 0.0, 0.0, 0.0, 1.657492801468655E9, 0.0, 2022-07-10 18:40:01.468
122.0, 33666.15279509459, 28951.387578414393, -11790.969883319127, -37560.92191468739, 12416.59521062317, 22018.658759434078, -11443.534367505834, 15438.551060980686, 0.024, 0.9420000000000001, 0.27, 192.0, 0.0, 0.0, 0.0, 0.0, 0.0, 0.0, 0.0, 0.0, 0.0, 1.657492801468694E9, 0.0, 2022-07-10 18:40:01.468
123.0, 35046.08244253188, 29178.950688713874, -11771.233292965091, -36934.715442027504, 12269.52073210725, 24780.552063054092, -11590.541790788388, 16432.019046785717, 0.024, 0.9420000000000001, 0.27, 192.0, 0.0, 0.0, 0.0, 0.0, 0.0, 0.0, 0.0, 0.0, 0.0, 1.657492801475419E9, 0.0, 2022-07-10 18:40:01.475
124.0, 36768.686684213484, 29246.899991858005, -11975.751754731149, -37169.31935183041, 12069.62908144344, 26381.160483498632, -11805.833793381906, 16546.728199330355, 0.024, 0.9420000000000001, 0.27, 192.0, 0.0, 0.0, 0.0, 0.0, 0.0, 0.0, 0.0, 0.0, 0.0, 1.657492801475465E9, 0.0, 2022-07-10 18:40:01.475
125.0, 35607.62531848256, 29034.31255034358, -12010.486365614697, -37785.37813250758, 12200.051510340156, 23849.020761134718, -11684.866152389784, 15593.60511226715, 0.024, 0.9420000000000001, 0.27, 192.0, 0.0, 0.0, 0.0, 0.0, 0.0, 0.0, 0.0, 0.0, 0.0, 1.657492801483431E9, 0.0, 2022-07-10 18:40:01.483
126.0, 33750.552982157824, 28927.6276740584, -11821.614124967353, -37662.8905728925, 12416.349341434163, 21903.435516766967, -11442.640297727621, 15331.374446317488, 0.024, 0.9420000000000001, 0.27, 192.0, 0.0, 0.0, 0.0, 0.0, 0.0, 0.0, 0.0, 0.0, 0.0, 1.657492801483458E9, 0.0, 2022-07-10 18:40:01.483
127.0, 34629.80355379624, 29122.445478730857, -11745.528786841487, -36991.488872943984, 12317.375816986063, 24157.452482873498, -11522.547784155344, 16269.879492506921, 0.024, 0.9420000000000001, 0.27, 192.0, 0.0, 0.0, 0.0, 0.0, 0.0, 0.0, 0.0, 0.0, 0.0, 1.657492801491302E9, 0.0, 2022-07-10 18:40:01.491
128.0, 36649.66364498898, 29263.75320717731, -11929.729512897673, -37045.82596371484, 12097.34524456802, 26446.069949396846, -11771.702679598651, 16657.414037873037, 0.024, 0.9420000000000001, 0.27, 192.0, 0.0, 0.0, 0.0, 0.0, 0.0, 0.0, 0.0, 0.0, 0.0, 1.657492801491323E9, 0.0, 2022-07-10 18:40:01.491
129.0, 35974.59625894979, 29095.645737128943, -12022.71276983175, -37705.761218757776, 12156.420905163397, 24435.128204241777, -11733.816472746907, 15772.30730918733, 0.024, 0.9420000000000001, 0.27, 192.0, 0.0, 0.0, 0.0, 0.0, 0.0, 0.0, 0.0, 0.0, 0.0, 1.657492801498433E9, 0.0, 2022-07-10 18:40:01.498
130.0, 33916.537036482936, 28938.848249774965, -11857.578081795942, -37749.39182393454, 12390.935407988478, 21949.01072371134, -11489.154277939115, 15270.68946012133, 0.034, 0.932, 0.268, 192.0, 1.0, 16.0, 29.0, 32.0, 8.0, 96.0, 0.0, 0.0, 0.0, 1.657492801498487E9, 0.0, 2022-07-10 18:40:01.498
131.0, 34245.599418353966, 29081.47473114428, -11738.264469893513, -37089.52362412496, 12365.096791398144, 23550.580269167458, -11489.735423294953, 16081.342528026407, 0.034, 0.932, 0.268, 192.0, 0.0, 0.0, 0.0, 0.0, 0.0, 0.0, 0.0, 0.0, 0.0, 1.657492801504906E9, 0.0, 2022-07-10 18:40:01.504
132.0, 36428.82840977054, 29267.687114201442, -11894.749032825117, -36957.089538227265, 12118.691160522838, 26362.295611178353, -11712.023521902982, 16734.50520449939, 0.034, 0.932, 0.268, 192.0, 0.0, 0.0, 0.0, 0.0, 0.0, 0.0, 0.0, 0.0, 0.0, 1.657492801514557E9, 0.0, 2022-07-10 18:40:01.514
133.0, 36309.246576934645, 29135.163621325926, -12028.747740834682, -37602.18323495188, 12127.073064693579, 25019.62632174806, -11728.787330244462, 15977.943358176157, 0.034, 0.932, 0.268, 192.0, 0.0, 0.0, 0.0, 0.0, 0.0, 0.0, 0.0, 0.0, 0.0, 1.657492801514589E9, 0.0, 2022-07-10 18:40:01.514
134.0, 34184.89208041335, 28946.984284756698, -11890.323387422966, -37808.445132785455, 12371.824666479191, 22138.91114460363, -11495.74804255343, 15266.107352507992, 0.034, 0.932, 0.268, 192.0, 0.0, 0.0, 0.0, 0.0, 0.0, 0.0, 0.0, 0.0, 0.0, 1.657492801520943E9, 0.0, 2022-07-10 18:40:01.520
135.0, 33927.89172266623, 29042.493288814225, -11736.23046114808, -37209.77600929451, 12404.011178494833, 22958.77313122429, -11454.285556588837, 15883.440182619117, 0.034, 0.932, 0.268, 192.0, 0.0, 0.0, 0.0, 0.0, 0.0, 0.0, 0.0, 0.0, 0.0, 1.657492801520965E9, 0.0, 2022-07-10 18:40:01.520
136.0, 36089.55128068344, 29253.717273916875, -11856.72871550664, -36909.32386032627, 12155.593890618551, 26062.268145354767, -11703.93219041016, 16704.82208786274, 0.034, 0.932, 0.268, 192.0, 0.0, 0.0, 0.0, 0.0, 0.0, 0.0, 0.0, 0.0, 0.0, 1.657492801527699E9, 0.0, 2022-07-10 18:40:01.527
137.0, 36543.47050708181, 29178.77187475823, -12018.577697107517, -37488.971649285755, 12101.30150333661, 25514.113964332817, -11767.388792918777, 16147.10136021392, 0.034, 0.932, 0.268, 192.0, 0.0, 0.0, 0.0, 0.0, 0.0, 0.0, 0.0, 0.0, 0.0, 1.657492801527724E9, 0.0, 2022-07-10 18:40:01.527
138.0, 34514.602662873585, 28966.139729754894, -11919.671227892784, -37837.52475232181, 12328.775206658269, 22463.39141886132, -11548.654621679143, 15294.695233666329, 0.034, 0.932, 0.268, 192.0, 0.0, 0.0, 0.0, 0.0, 0.0, 0.0, 0.0, 0.0, 0.0, 1.657492801535432E9, 0.0, 2022-07-10 18:40:01.535
139.0, 33715.84072301874, 29010.910273898873, -11740.633754805775, -37338.27618816807, 12424.686542115993, 22467.839416007926, -11452.229196098948, 15681.626281932151, 0.028, 0.9380000000000001, 0.262, 192.0, 0.0, 224.0, 29.0, 80.0, 8.0, 48.0, 0.0, 0.0, 0.0, 1.657492801535452E9, 0.0, 2022-07-10 18:40:01.535
140.0, 35705.861235363634, 29242.384939478034, -11807.688988171696, -36878.67961867805, 12208.925152888913, 25641.384797261337, -11657.261747987479, 16637.744502752364, 0.028, 0.9380000000000001, 0.262, 192.0, 0.0, 0.0, 0.0, 0.0, 0.0, 0.0, 0.0, 0.0, 0.0, 1.657492801543617E9, 0.0, 2022-07-10 18:40:01.543
141.0, 36721.94918655744, 29216.21104672087, -12010.084034214502, -37358.72803434468, 12075.48523849073, 25946.03907418717, -11793.71914788713, 16325.915315856377, 0.028, 0.9380000000000001, 0.262, 192.0, 0.0, 0.0, 0.0, 0.0, 0.0, 0.0, 0.0, 0.0, 0.0, 1.657492801543649E9, 0.0, 2022-07-10 18:40:01.543
142.0, 34898.695039593586, 28983.93171834132, -11963.681812725285, -37852.47806936241, 12274.66163333197, 22889.438019923928, -11607.39500610769, 15360.744638531762, 0.028, 0.9380000000000001, 0.262, 192.0, 0.0, 0.0, 0.0, 0.0, 0.0, 0.0, 0.0, 0.0, 0.0, 1.657492801551945E9, 0.0, 2022-07-10 18:40:01.551
143.0, 33607.099486243664, 28970.855947834963, -11763.834865550383, -37467.60338158648, 12436.980001566411, 22093.715917315, -11438.21465232547, 15509.316683926188, 0.028, 0.9380000000000001, 0.262, 192.0, 0.0, 0.0, 0.0, 0.0, 0.0, 0.0, 0.0, 0.0, 0.0, 1.657492801551986E9, 0.0, 2022-07-10 18:40:01.551
144.0, 35283.9273552808, 29205.52691287123, -11778.207037235146, -36894.325839796766, 12262.412877370463, 25114.665939172024, -11616.760387034463, 16526.611629320578, 0.028, 0.9380000000000001, 0.262, 192.0, 0.0, 0.0, 0.0, 0.0, 0.0, 0.0, 0.0, 0.0, 0.0, 1.657492801558459E9, 0.0, 2022-07-10 18:40:01.558
