%OpenBCI Raw EEG Data
%Number of channels = 8
%Sample Rate = 250 Hz
%Board = OpenBCI_GUI$BoardCytonSerial
Sample Index, EXG Channel 0, EXG Channel 1, EXG Channel 2, EXG Channel 3, EXG Channel 4, EXG Channel 5, EXG Channel 6, EXG Channel 7, Accel Channel 0, Accel Channel 1, Accel Channel 2, Other, Other, Other, Other, Other, Other, Other, Analog Channel 0, Analog Channel 1, Analog Channel 2, Timestamp, Other, Timestamp (Formatted)
0.0, 0.0, 0.0, 0.0, 0.0, 0.0, 0.0, 0.0, 0.0, 0.058, 0.892, 0.392, 192.0, 1.0, 208.0, 27.0, 224.0, 12.0, 64.0, 0.0, 0.0, 0.0, 1.657492214119594E9, 0.0, 2022-07-10 18:30:14.119
1.0, 32830.89045654422, 12567.111857785208, -33313.53167456766, -54290.53208715106, -3799.908316124477, 18177.444419556192, -28487.298308288853, -5758.345813554027, 0.058, 0.892, 0.392, 192.0, 0.0, 0.0, 0.0, 0.0, 0.0, 0.0, 0.0, 0.0, 0.0, 1.657492214135559E9, 0.0, 2022-07-10 18:30:14.135
2.0, 27283.07572401473, 11660.033364299938, -33144.530134741086, -56369.06550753898, -2875.082537541692, 10949.337297598995, -27678.76865610703, -8561.656899649728, 0.058, 0.892, 0.392, 192.0, 0.0, 0.0, 0.0, 0.0, 0.0, 0.0, 0.0, 0.0, 0.0, 1.65749221415156E9, 0.0, 2022-07-10 18:30:14.151
3.0, 18060.500092566024, 11463.65093751561, -32256.04829264263, -55707.76679608427, -1889.549421018293, -1717.4409887124289, -26707.56300777948, -9138.689534507936, 0.058, 0.892, 0.392, 192.0, 0.0, 0.0, 0.0, 0.0, 0.0, 0.0, 0.0, 0.0, 0.0, 1.657492214162594E9, 0.0, 2022-07-10 18:30:14.162
4.0, 22243.36084644328, 12342.052142864723, -32276.455435330325, -53439.80234143762, -2682.969293948328, 3643.3790497039618, -27380.79755077333, -6355.293852721912, 0.058, 0.892, 0.392, 192.0, 0.0, 0.0, 0.0, 0.0, 0.0, 0.0, 0.0, 0.0, 0.0, 1.657492214177524E9, 0.0, 2022-07-10 18:30:14.177
5.0, 32211.27774849865, 12648.36044888025, -33212.837065796506, -53890.07823348978, -3794.052159077187, 17295.75750777215, -28450.797909593333, -5421.683838568192, 0.058, 0.892, 0.392, 192.0, 0.0, 0.0, 0.0, 0.0, 0.0, 0.0, 0.0, 0.0, 0.0, 1.657492214177555E9, 0.0, 2022-07-10 18:30:14.177
6.0, 29095.064591773105, 11806.079662570914, -33274.282011304145, -56154.466409023575, -3122.3151829618437, 13398.328530589168, -27916.211237455755, -8092.918466677484, 0.058, 0.892, 0.392, 192.0, 0.0, 0.0, 0.0, 0.0, 0.0, 0.0, 0.0, 0.0, 0.0, 1.657492214353775E9, 0.0, 2022-07-10 18:30:14.353
7.0, 18999.362766666745, 11398.607361150665, -32394.629108265533, -56046.19455888207, -1962.9525498095215, -378.5044406061698, -26816.907741654843, -9357.893092381131, 0.058, 0.892, 0.392, 192.0, 0.0, 0.0, 0.0, 0.0, 0.0, 0.0, 0.0, 0.0, 0.0, 1.657492214369885E9, 0.0, 2022-07-10 18:30:14.369
8.0, 20467.00065934666, 12176.40336470644, -32165.523727598636, -53746.26710966434, -2431.0874856814726, 1273.1777159187457, -27163.829167345666, -6884.426699212397, 0.038, 0.886, 0.4, 192.0, 1.0, 48.0, 27.0, 176.0, 12.0, 128.0, 0.0, 0.0, 0.0, 1.657492214497974E9, 0.0, 2022-07-10 18:30:14.497
9.0, 31103.927624693828, 12705.871487363755, -33062.521584334565, -53551.85163639208, -3700.4877567872713, 15733.079997668267, -28364.542527740305, -5237.2372433229975, 0.038, 0.886, 0.4, 192.0, 0.0, 0.0, 0.0, 0.0, 0.0, 0.0, 0.0, 0.0, 0.0, 1.657492214523184E9, 0.0, 2022-07-10 18:30:14.523
10.0, 30655.8869070872, 11971.840199451472, -33363.487823425276, -55851.44380944298, -3346.1679036817436, 15480.170009156467, -28135.303036606674, -7573.374518558326, 0.038, 0.886, 0.4, 192.0, 0.0, 0.0, 0.0, 0.0, 0.0, 0.0, 0.0, 0.0, 0.0, 1.65749221453895E9, 0.0, 2022-07-10 18:30:14.538
11.0, 20351.50919574609, 11382.804677820764, -32538.753156513354, -56300.177431127726, -2077.996978520987, 1500.4502535403078, -26911.27680674515, -9421.841433267766, 0.038, 0.886, 0.4, 192.0, 0.0, 0.0, 0.0, 0.0, 0.0, 0.0, 0.0, 0.0, 0.0, 1.65749221463529E9, 0.0, 2022-07-10 18:30:14.635
12.0, 19054.81744466036, 12007.267714413132, -32098.043811088064, -54132.66171606323, -2218.8800238227873, -594.131719366517, -26955.220336344282, -7446.461313541093, 0.038, 0.886, 0.4, 192.0, 0.0, 0.0, 0.0, 0.0, 0.0, 0.0, 0.0, 0.0, 0.0, 1.65749221464322E9, 0.0, 2022-07-10 18:30:14.643
93.0, 32921.66089077722, 12425.379446194107, -33409.75593444776, -54716.62339170258, -3796.8908306230105, 18371.50226491717, -28518.367233081728, -6184.817097761285, 0.038, 0.886, 0.4, 192.0, 0.0, 0.0, 0.0, 0.0, 0.0, 0.0, 0.0, 0.0, 0.0, 1.65749221464326E9, 0.0, 2022-07-10 18:30:14.643
91.0, 17619.58958144064, 11682.385108755245, -32110.247863560664, -54902.83577475975, -1962.840791087245, -2432.920328726808, -26772.74069461116, -8460.381145522731, 0.038, 0.886, 0.4, 192.0, 0.0, 0.0, 0.0, 0.0, 0.0, 0.0, 0.0, 0.0, 0.0, 1.65749221465906E9, 0.0, 2022-07-10 18:30:14.659
71.0, 24626.660302479304, 12526.38697938764, -32443.601780367113, -53213.62503929437, -2994.3961494441214, 6849.669736584394, -27676.131150261303, -5809.978343245786, 0.038, 0.886, 0.4, 192.0, 0.0, 0.0, 0.0, 0.0, 0.0, 0.0, 0.0, 0.0, 0.0, 1.65749221467516E9, 0.0, 2022-07-10 18:30:14.675
89.0, 32527.86785696362, 12273.074659475644, -33438.92496096194, -55147.699135267634, -3683.29926530114, 17893.666671951614, -28421.181848190052, -6653.644937711351, 0.038, 0.886, 0.4, 192.0, 0.0, 0.0, 0.0, 0.0, 0.0, 0.0, 0.0, 0.0, 0.0, 1.657492216307863E9, 0.0, 2022-07-10 18:30:16.307
17.0, 27751.59063954242, 12677.104792249775, -32711.554492897332, -53185.73006221415, -3363.9151887792577, 11099.183392427372, -28020.616235806494, -5347.543102209938, 0.038, 0.886, 0.4, 192.0, 0.0, 0.0, 0.0, 0.0, 0.0, 0.0, 0.0, 0.0, 0.0, 1.657492216315341E9, 0.0, 2022-07-10 18:30:16.315
30.0, 18131.086901555886, 11761.689098082674, -32039.079909214965, -54401.06146348256, -2030.4101145756383, -1790.2182686589085, -26839.93003844381, -7993.699073040376, 0.038, 0.886, 0.4, 192.0, 0.0, 0.0, 0.0, 0.0, 0.0, 0.0, 0.0, 0.0, 0.0, 1.657492216315362E9, 0.0, 2022-07-10 18:30:16.315
31.0, 27990.9554709143, 12604.483974514482, -32712.09093476426, -53155.17522754374, -3353.52162760754, 11477.732536522453, -28043.862050040014, -5383.2164863606085, 0.038, 0.886, 0.4, 192.0, 0.0, 0.0, 0.0, 0.0, 0.0, 0.0, 0.0, 0.0, 0.0, 1.657492216324332E9, 0.0, 2022-07-10 18:30:16.324
32.0, 32379.698142969388, 12197.0787283276, -33389.617012693525, -55091.81977412937, -3623.8883285389343, 17776.521179261348, -28378.959402913977, -6688.670121272818, 0.038, 0.886, 0.4, 192.0, 0.0, 0.0, 0.0, 0.0, 0.0, 0.0, 0.0, 0.0, 0.0, 1.657492216324362E9, 0.0, 2022-07-10 18:30:16.324
33.0, 23384.752677053533, 11346.90777622554, -32816.853561026284, -56455.38794462538, -2388.1050810939173, 5710.066045530563, -27270.603450608665, -9329.662839134078, -0.02, 0.918, 0.382, 192.0, 255.0, 96.0, 28.0, 176.0, 11.0, 240.0, 0.0, 0.0, 0.0, 1.657492216330518E9, 0.0, 2022-07-10 18:30:16.330
34.0, 17552.08731318561, 11591.078232655314, -32055.8660693009, -54832.00309658088, -1911.7447032624132, -2497.8297946250195, -26757.47445314818, -8520.082654962856, -0.02, 0.918, 0.382, 192.0, 0.0, 0.0, 0.0, 0.0, 0.0, 0.0, 0.0, 0.0, 0.0, 1.657492216330545E9, 0.0, 2022-07-10 18:30:16.330
35.0, 26006.09821153858, 12509.913743724079, -32519.217731859415, -53102.022779229024, -3124.192729496089, 8779.586408088971, -27805.011308790603, -5609.080864081486, -0.02, 0.918, 0.382, 192.0, 0.0, 0.0, 0.0, 0.0, 0.0, 0.0, 0.0, 0.0, 0.0, 1.657492216336819E9, 0.0, 2022-07-10 18:30:16.336
36.0, 32762.315304555337, 12339.459340507907, -33351.104956997035, -54639.465169842864, -3726.21461465533, 18255.18378677175, -28430.949560517023, -6169.573208042766, -0.02, 0.918, 0.382, 192.0, 0.0, 0.0, 0.0, 0.0, 0.0, 0.0, 0.0, 0.0, 0.0, 1.657492216336855E9, 0.0, 2022-07-10 18:30:16.336
37.0, 25322.358348650738, 11440.494530259912, -32969.02423727801, -56417.45703428472, -2607.353342456024, 8376.696214282061, -27444.768243404418, -9004.35555033154, -0.02, 0.918, 0.382, 192.0, 0.0, 0.0, 0.0, 0.0, 0.0, 0.0, 0.0, 0.0, 0.0, 1.657492216342932E9, 0.0, 2022-07-10 18:30:16.342
38.0, 17518.202068591367, 11483.164010425093, -32111.454857761248, -55243.65517421427, -1840.7779146168132, -2469.4430791667796, -26671.1967195507, -8918.52485162316, -0.02, 0.918, 0.382, 192.0, 0.0, 0.0, 0.0, 0.0, 0.0, 0.0, 0.0, 0.0, 0.0, 1.657492216342974E9, 0.0, 2022-07-10 18:30:16.342
40.0, 32628.02602386785, 12458.303565776774, -33278.104159606, -54220.10174037239, -3762.6032546285696, 17998.339891235817, -28481.19628205255, -5777.456555063314, -0.02, 0.918, 0.382, 192.0, 0.0, 0.0, 0.0, 0.0, 0.0, 0.0, 0.0, 0.0, 0.0, 1.657492216349051E9, 0.0, 2022-07-10 18:30:16.349
41.0, 27240.495650827368, 11576.504895270455, -33128.97332060019, -56290.789698456494, -2864.4878106698766, 10966.45873385176, -27698.035859827505, -8623.772397491026, -0.02, 0.918, 0.382, 192.0, 0.0, 0.0, 0.0, 0.0, 0.0, 0.0, 0.0, 0.0, 0.0, 1.657492216349096E9, 0.0, 2022-07-10 18:30:16.349
42.0, 18007.86173437378, 11395.053433782272, -32231.394318508428, -55647.81941745513, -1859.620435192637, -1746.9005879045235, -26701.036298398532, -9246.313184060238, -0.02, 0.918, 0.382, 192.0, 0.0, 0.0, 0.0, 0.0, 0.0, 0.0, 0.0, 0.0, 0.0, 1.657492216355294E9, 0.0, 2022-07-10 18:30:16.355
43.0, 22008.60047442919, 12257.070810445644, -32222.632434681946, -53400.19505026282, -2617.0316478051723, 3376.879200563336, -27345.012407900384, -6445.03610670997, -0.024, 0.932, 0.392, 192.0, 255.0, 64.0, 29.0, 32.0, 12.0, 64.0, 0.0, 0.0, 0.0, 1.657492216355321E9, 0.0, 2022-07-10 18:30:16.355
44.0, 31953.51743144005, 12565.927215329077, -33158.94700991476, -53822.91124140158, -3745.0347834866984, 17053.196376943157, -28442.080729255766, -5472.019967081544, -0.024, 0.932, 0.392, 192.0, 0.0, 0.0, 0.0, 0.0, 0.0, 0.0, 0.0, 0.0, 0.0, 1.657492216361395E9, 0.0, 2022-07-10 18:30:16.361
45.0, 29014.486553011724, 11718.885507450761, -33237.58044690853, -56055.49288457548, -3104.8137670533383, 13406.017530681793, -27888.360963864445, -8127.518967094299, -0.024, 0.932, 0.392, 192.0, 0.0, 0.0, 0.0, 0.0, 0.0, 0.0, 0.0, 0.0, 0.0, 1.65749221636763E9, 0.0, 2022-07-10 18:30:16.367
46.0, 18952.46880679951, 11313.380159542581, -32359.87214563753, -55963.493104397436, -1936.8457122857228, -380.2478766736838, -26775.914642323813, -9436.39241890817, -0.024, 0.932, 0.392, 192.0, 0.0, 0.0, 0.0, 0.0, 0.0, 0.0, 0.0, 0.0, 0.0, 1.657492216367667E9, 0.0, 2022-07-10 18:30:16.367
47.0, 20246.29953459496, 12126.223698404277, -32128.35277656946, -53699.82018468621, -2394.2294590746715, 1036.696259581597, -27151.491004406336, -6997.414767433974, -0.024, 0.932, 0.392, 192.0, 0.0, 0.0, 0.0, 0.0, 0.0, 0.0, 0.0, 0.0, 0.0, 1.65749221637365E9, 0.0, 2022-07-10 18:30:16.373
48.0, 30841.160516877237, 12641.252594143461, -33029.530409518535, -53505.65058060296, -3678.6501024544364, 15467.362459583577, -28405.401516604605, -5328.857043845302, -0.024, 0.932, 0.392, 192.0, 0.0, 0.0, 0.0, 0.0, 0.0, 0.0, 0.0, 0.0, 0.0, 1.657492216373672E9, 0.0, 2022-07-10 18:30:16.373
49.0, 30557.963914628497, 11891.552733368007, -33338.20800044632, -55767.78122994676, -3342.99395596909, 15448.2964215632, -28144.400196599985, -7624.828234294443, -0.024, 0.932, 0.392, 192.0, 0.0, 0.0, 0.0, 0.0, 0.0, 0.0, 0.0, 0.0, 0.0, 1.657492216380247E9, 0.0, 2022-07-10 18:30:16.380
50.0, 20326.095262300405, 11280.836019615654, -32517.139019625072, -56220.71697958911, -2075.31476918635, 1507.0440181546235, -26921.156277794395, -9495.825707414831, -0.024, 0.932, 0.392, 192.0, 0.0, 0.0, 0.0, 0.0, 0.0, 0.0, 0.0, 0.0, 0.0, 1.657492216380317E9, 0.0, 2022-07-10 18:30:16.380
51.0, 18880.876169309162, 11901.096928250425, -32045.15958370681, -54070.45681124411, -2160.1172876497853, -818.7220476534424, -26858.102006685975, -7510.029674771986, -0.024, 0.932, 0.392, 192.0, 0.0, 0.0, 0.0, 0.0, 0.0, 0.0, 0.0, 0.0, 0.0, 1.657492216385954E9, 0.0, 2022-07-10 18:30:16.385
52.0, 29301.684117517965, 12612.955285663043, -32843.58624739483, -53258.484990416175, -3503.7477020916585, 13335.408369947478, -28124.99888241278, -5242.400496292174, -0.024, 0.932, 0.392, 192.0, 0.0, 0.0, 0.0, 0.0, 0.0, 0.0, 0.0, 0.0, 0.0, 1.657492216386008E9, 0.0, 2022-07-10 18:30:16.386
53.0, 31722.84742866128, 12039.163653750857, -33382.41975097892, -55406.53233606009, -3514.4988911746614, 17021.725120750085, -28208.147371786523, -7022.6722386684705, -0.026000000000000002, 0.914, 0.4, 192.0, 255.0, 48.0, 28.0, 144.0, 12.0, 128.0, 0.0, 0.0, 0.0, 1.657492216391807E9, 0.0, 2022-07-10 18:30:16.391
54.0, 21980.77255258233, 11303.5677437267, -32671.589573811245, -56402.079034099464, -2224.9373465701756, 3819.086112867131, -27011.926712027398, -9368.66663320859, -0.026000000000000002, 0.914, 0.4, 192.0, 0.0, 0.0, 0.0, 0.0, 0.0, 0.0, 0.0, 0.0, 0.0, 1.657492216391829E9, 0.0, 2022-07-10 18:30:16.391
55.0, 17937.11846317273, 11717.186774872158, -32039.81751678199, -54517.15642418342, -2001.3304950392837, -2018.6083935032361, -26750.992447256143, -8039.7436666183075, -0.026000000000000002, 0.914, 0.4, 192.0, 0.0, 0.0, 0.0, 0.0, 0.0, 0.0, 0.0, 0.0, 0.0, 1.657492216398289E9, 0.0, 2022-07-10 18:30:16.398
56.0, 27461.017961623427, 12583.629796937681, -32663.922925463074, -53134.119884266845, -3302.671408971716, 10835.946897977221, -27923.453202659275, -5346.023183586977, -0.026000000000000002, 0.914, 0.4, 192.0, 0.0, 0.0, 0.0, 0.0, 0.0, 0.0, 0.0, 0.0, 0.0, 1.657492216398349E9, 0.0, 2022-07-10 18:30:16.398
57.0, 32446.395748424027, 12242.765693994248, -33391.293393527674, -54989.76170894643, -3659.62876792297, 17984.41475444016, -28321.47071617493, -6473.333415190389, -0.026000000000000002, 0.914, 0.4, 192.0, 0.0, 0.0, 0.0, 0.0, 0.0, 0.0, 0.0, 0.0, 0.0, 1.657492216404474E9, 0.0, 2022-07-10 18:30:16.404
58.0, 23828.7253771693, 11355.15556992955, -32863.59105868233, -56478.07496524751, -2449.7735440461092, 6390.319036283378, -27240.428595594003, -9153.285223637251, -0.026000000000000002, 0.914, 0.4, 192.0, 0.0, 0.0, 0.0, 0.0, 0.0, 0.0, 0.0, 0.0, 0.0, 1.65749221640452E9, 0.0, 2022-07-10 18:30:16.404
59.0, 17501.102984083056, 11543.04433382086, -32094.132255808385, -54981.31274954233, -1911.5658893067707, -2547.785943482631, -26700.18693210923, -8513.757111282004, -0.026000000000000002, 0.914, 0.4, 192.0, 0.0, 0.0, 0.0, 0.0, 0.0, 0.0, 0.0, 0.0, 0.0, 1.657492216410503E9, 0.0, 2022-07-10 18:30:16.410
60.0, 25434.36294011628, 12432.576707908716, -32529.790106986777, -53164.98764335962, -3104.009104252947, 8067.236312298336, -27813.102640283425, -5621.217861320718, -0.026000000000000002, 0.914, 0.4, 192.0, 0.0, 0.0, 0.0, 0.0, 0.0, 0.0, 0.0, 0.0, 0.0, 1.657492216416987E9, 0.0, 2022-07-10 18:30:16.416
61.0, 32662.872393473674, 12305.551744169206, -33395.45081799637, -54595.61104722155, -3794.65565617748, 18244.633763388847, -28568.94923078409, -6017.670752724499, -0.026000000000000002, 0.914, 0.4, 192.0, 0.0, 0.0, 0.0, 0.0, 0.0, 0.0, 0.0, 0.0, 0.0, 1.657492216417047E9, 0.0, 2022-07-10 18:30:16.417
62.0, 25754.596382927466, 11432.827881911742, -33044.01433992557, -56458.31602314902, -2710.417236139445, 9020.02412319471, -27622.755184502028, -8826.525071445116, -0.026000000000000002, 0.914, 0.4, 192.0, 0.0, 0.0, 0.0, 0.0, 0.0, 0.0, 0.0, 0.0, 0.0, 1.657492216422963E9, 0.0, 2022-07-10 18:30:16.422
63.0, 17625.15516581001, 11418.612172438166, -32170.79873929009, -55404.36421684793, -1883.1568221040754, -2368.9049326068084, -26826.96602665973, -8875.9447784358, 0.018000000000000002, 0.872, 0.404, 192.0, 0.0, 144.0, 27.0, 64.0, 12.0, 160.0, 0.0, 0.0, 0.0, 1.657492216422983E9, 0.0, 2022-07-10 18:30:16.422
64.0, 23446.55525047246, 12332.172671815477, -32350.730282155313, -53250.48306590117, -2854.250711709346, 5332.992116569533, -27730.57999975443, -5963.981862542852, 0.018000000000000002, 0.872, 0.404, 192.0, 0.0, 0.0, 0.0, 0.0, 0.0, 0.0, 0.0, 0.0, 0.0, 1.657492216429344E9, 0.0, 2022-07-10 18:30:16.429
65.0, 32403.36864034756, 12451.352173251174, -33288.29655507762, -54128.079608449894, -3813.1852523309294, 17870.622023418193, -28638.48550778455, -5563.617415859391, 0.018000000000000002, 0.872, 0.404, 192.0, 0.0, 0.0, 0.0, 0.0, 0.0, 0.0, 0.0, 0.0, 0.0, 1.657492216429401E9, 0.0, 2022-07-10 18:30:16.429
66.0, 27678.969821807128, 11586.138497130692, -33179.30944911354, -56264.861674888336, -2953.8053815132835, 11684.64263494523, -27825.50785845612, -8351.885777936672, 0.018000000000000002, 0.872, 0.404, 192.0, 0.0, 0.0, 0.0, 0.0, 0.0, 0.0, 0.0, 0.0, 0.0, 1.657492216435119E9, 0.0, 2022-07-10 18:30:16.435
67.0, 18272.28287128006, 11364.20802643395, -32255.467147286792, -55735.68412490894, -1881.3686825476507, -1432.0986189959788, -26790.040944819564, -9123.84797618961, 0.018000000000000002, 0.872, 0.404, 192.0, 0.0, 0.0, 0.0, 0.0, 0.0, 0.0, 0.0, 0.0, 0.0, 1.657492216435139E9, 0.0, 2022-07-10 18:30:16.435
68.0, 21544.488852559192, 12204.678321442405, -32199.051344281597, -53455.44856255634, -2578.65370257541, 2756.864161117573, -27391.43698113406, -6406.859327180306, 0.018000000000000002, 0.872, 0.404, 192.0, 0.0, 0.0, 0.0, 0.0, 0.0, 0.0, 0.0, 0.0, 0.0, 1.657492216441621E9, 0.0, 2022-07-10 18:30:16.441
69.0, 31604.29377607033, 12552.024430277877, -33163.46206229473, -53738.68986829399, -3790.878211364533, 16767.451675826513, -28567.56342262786, -5279.012653709967, 0.018000000000000002, 0.872, 0.404, 192.0, 0.0, 0.0, 0.0, 0.0, 0.0, 0.0, 0.0, 0.0, 0.0, 1.657492216441673E9, 0.0, 2022-07-10 18:30:16.441
70.0, 29358.94928681246, 11763.23136845009, -33299.584186027554, -56005.53673571786, -3220.528748098463, 14010.363997264385, -28101.75306817926, -7863.187237165837, 0.018000000000000002, 0.872, 0.404, 192.0, 0.0, 0.0, 0.0, 0.0, 0.0, 0.0, 0.0, 0.0, 0.0, 1.657492216447463E9, 0.0, 2022-07-10 18:30:16.447
71.0, 19348.429959825273, 11346.550148314256, -32389.93524192992, -56014.18686082207, -1980.0739860622868, 83.61787600730372, -26903.18547525233, -9262.808771468255, 0.018000000000000002, 0.872, 0.404, 192.0, 0.0, 0.0, 0.0, 0.0, 0.0, 0.0, 0.0, 0.0, 0.0, 1.657492216447501E9, 0.0, 2022-07-10 18:30:16.447
72.0, 19948.79781589482, 12078.569779225563, -32089.55014819505, -53747.83173177621, -2333.566824622968, 570.2153527993385, -27152.51918465128, -6913.819243171125, 0.018000000000000002, 0.872, 0.404, 192.0, 0.0, 0.0, 0.0, 0.0, 0.0, 0.0, 0.0, 0.0, 0.0, 1.657492216453372E9, 0.0, 2022-07-10 18:30:16.453
73.0, 30386.7719038453, 12623.907640446145, -33001.32250801593, -53422.77031216268, -3673.553904718626, 15051.485902248134, -28459.58214516427, -5122.908070434102, 0.108, 0.844, 0.442, 192.0, 3.0, 96.0, 26.0, 96.0, 13.0, 208.0, 0.0, 0.0, 0.0, 1.657492216453393E9, 0.0, 2022-07-10 18:30:16.453
74.0, 30802.04496408045, 11937.574975201485, -33381.63743992298, -55670.17116191044, -3436.7148204701925, 15974.59059650786, -28345.677655420026, -7324.107864392742, 0.108, 0.844, 0.442, 192.0, 0.0, 0.0, 0.0, 0.0, 0.0, 0.0, 0.0, 0.0, 0.0, 1.657492216459752E9, 0.0, 2022-07-10 18:30:16.459
75.0, 20817.990102528347, 11352.965098972929, -32549.481993851903, -56220.49346214455, -2128.8695489012657, 2123.9521651210985, -27122.433736614435, -9268.463762815449, 0.108, 0.844, 0.442, 192.0, 0.0, 0.0, 0.0, 0.0, 0.0, 0.0, 0.0, 0.0, 0.0, 1.65749221646549E9, 0.0, 2022-07-10 18:30:16.465
76.0, 18701.16814388849, 11911.177564999767, -32043.95258950622, -54126.06795144892, -2151.4001073122154, -1141.5482928214424, -27094.047021156195, -7452.786857221945, 0.108, 0.844, 0.442, 192.0, 0.0, 0.0, 0.0, 0.0, 0.0, 0.0, 0.0, 0.0, 0.0, 1.657492216465558E9, 0.0, 2022-07-10 18:30:16.465
77.0, 28758.40261678727, 12607.009721637933, -32849.04007304193, -53219.2129754082, -3548.5853014690047, 12774.871322497287, -28438.526801887372, -5135.246233373432, 0.108, 0.844, 0.442, 192.0, 0.0, 0.0, 0.0, 0.0, 0.0, 0.0, 0.0, 0.0, 0.0, 1.657492216472997E9, 0.0, 2022-07-10 18:30:16.472
78.0, 31851.10173834583, 12097.233485845743, -33444.62465579804, -55302.70848306519, -3665.06024182561, 17407.940913193335, -28647.85088871132, -6787.1519073429, 0.108, 0.844, 0.442, 192.0, 0.0, 0.0, 0.0, 0.0, 0.0, 0.0, 0.0, 0.0, 0.0, 1.657492216473051E9, 0.0, 2022-07-10 18:30:16.473
79.0, 22580.447504573764, 11382.044718509283, -32730.754641384443, -56362.56114990248, -2351.112944020384, 4565.299101507557, -27437.258057267438, -9174.899360525533, 0.108, 0.844, 0.442, 192.0, 0.0, 0.0, 0.0, 0.0, 0.0, 0.0, 0.0, 0.0, 0.0, 1.657492216479617E9, 0.0, 2022-07-10 18:30:16.479
80.0, 17941.70057078607, 11760.079772481891, -32022.070231684476, -54556.74136361377, -2000.1458525831524, -2195.2318781890726, -27039.151136773962, -7990.703939283364, 0.108, 0.844, 0.442, 192.0, 0.0, 0.0, 0.0, 0.0, 0.0, 0.0, 0.0, 0.0, 0.0, 1.657492216479637E9, 0.0, 2022-07-10 18:30:16.479
81.0, 26823.792078947077, 12549.901014554622, -32649.12607063366, -53106.53783160899, -3315.5907172668835, 10078.200409197856, -28279.069456943213, -5299.017464997467, 0.108, 0.844, 0.442, 192.0, 0.0, 0.0, 0.0, 0.0, 0.0, 0.0, 0.0, 0.0, 0.0, 1.657492216487451E9, 0.0, 2022-07-10 18:30:16.487
82.0, 32410.32003287316, 12240.731685248815, -33446.68101628793, -54869.106992376685, -3809.273697051251, 18179.970166679643, -28825.10022224191, -6262.62352021021, 0.168, 0.8320000000000001, 0.464, 192.0, 5.0, 64.0, 26.0, 0.0, 14.0, 128.0, 0.0, 0.0, 0.0, 1.657492216487495E9, 0.0, 2022-07-10 18:30:16.487
83.0, 24519.595446538384, 11432.872585400652, -32920.90093146574, -56422.77674946508, -2588.7566910692085, 7287.898038375144, -27694.52663594802, -8928.761950583692, 0.168, 0.8320000000000001, 0.464, 192.0, 0.0, 0.0, 0.0, 0.0, 0.0, 0.0, 0.0, 0.0, 0.0, 1.657492216495589E9, 0.0, 2022-07-10 18:30:16.495
84.0, 17730.923620572525, 11595.392119335189, -32065.9690577947, -55023.490491329496, -1901.038217668321, -2462.402279663358, -26992.905377495932, -8459.665889700162, 0.168, 0.8320000000000001, 0.464, 192.0, 0.0, 0.0, 0.0, 0.0, 0.0, 0.0, 0.0, 0.0, 0.0, 1.657492216495609E9, 0.0, 2022-07-10 18:30:16.495
85.0, 24777.623984530448, 12438.99165856739, -32456.744606106833, -53141.65242214828, -3057.4504205525427, 7220.775749775858, -28065.16326250592, -5615.786387418078, 0.168, 0.8320000000000001, 0.464, 192.0, 0.0, 0.0, 0.0, 0.0, 0.0, 0.0, 0.0, 0.0, 0.0, 1.657492216503521E9, 0.0, 2022-07-10 18:30:16.503
86.0, 32435.08576572964, 12352.401000547528, -33393.550919717665, -54431.16926326386, -3886.7671950778004, 18188.73205050612, -28913.25550237364, -5826.540985887169, 0.168, 0.8320000000000001, 0.464, 192.0, 0.0, 0.0, 0.0, 0.0, 0.0, 0.0, 0.0, 0.0, 0.0, 1.657492216503549E9, 0.0, 2022-07-10 18:30:16.503
87.0, 26484.984336493533, 11555.76247641593, -33077.83252928645, -56327.424207618744, -2834.5811765886756, 10021.426978281377, -27942.228668001735, -8573.346861999853, 0.168, 0.8320000000000001, 0.464, 192.0, 0.0, 0.0, 0.0, 0.0, 0.0, 0.0, 0.0, 0.0, 0.0, 1.657492216511428E9, 0.0, 2022-07-10 18:30:16.511
88.0, 18092.686604581668, 11521.318438210303, -32135.013596417142, -55418.3787606214, -1861.3191677712402, -1946.1887414680411, -26958.19311835684, -8815.103330028454, 0.168, 0.8320000000000001, 0.464, 192.0, 0.0, 0.0, 0.0, 0.0, 0.0, 0.0, 0.0, 0.0, 0.0, 1.657492216511451E9, 0.0, 2022-07-10 18:30:16.511
89.0, 22721.308198131108, 12319.745101898325, -32287.25132790224, -53302.13794733739, -2773.3373967811344, 4367.061479933439, -27772.713038052683, -6060.139067189582, 0.168, 0.8320000000000001, 0.464, 192.0, 0.0, 0.0, 0.0, 0.0, 0.0, 0.0, 0.0, 0.0, 0.0, 1.65749221651864E9, 0.0, 2022-07-10 18:30:16.518
90.0, 31865.608020497326, 12448.044115071789, -33303.920424451884, -54021.64060135372, -3899.5076894173253, 17359.683496914327, -28884.24293807065, -5501.904249418289, 0.168, 0.8320000000000001, 0.464, 192.0, 0.0, 0.0, 0.0, 0.0, 0.0, 0.0, 0.0, 0.0, 0.0, 1.65749221651868E9, 0.0, 2022-07-10 18:30:16.518
91.0, 28415.303339398306, 11684.910855878694, -33242.4978306887, -56141.1000658393, -3114.5144241469416, 12673.08147824782, -28175.223252203854, -8123.22743215888, 0.168, 0.8320000000000001, 0.464, 192.0, 0.0, 0.0, 0.0, 0.0, 0.0, 0.0, 0.0, 0.0, 0.0, 1.657492216527318E9, 0.0, 2022-07-10 18:30:16.527
92.0, 19053.543395226407, 11468.188341640038, -32251.935571662852, -55779.04650915224, -1889.9294006740333, -600.9937049142962, -26973.884042964466, -9045.683925829402, 0.156, 0.854, 0.47200000000000003, 192.0, 4.0, 224.0, 26.0, 176.0, 14.0, 192.0, 0.0, 0.0, 0.0, 1.657492216532894E9, 0.0, 2022-07-10 18:30:16.532
93.0, 20888.733373729396, 12192.206048036343, -32119.814410187533, -53565.32973829863, -2449.2147504347267, 1833.9159290690338, -27435.492269455466, -6572.77632627205, 0.156, 0.854, 0.47200000000000003, 192.0, 0.0, 0.0, 0.0, 0.0, 0.0, 0.0, 0.0, 0.0, 0.0, 1.657492216532927E9, 0.0, 2022-07-10 18:30:16.532
94.0, 30751.41826288918, 12512.57360131426, -33142.94316088476, -53644.320803203686, -3798.924839368444, 15790.233408240487, -28743.69516893568, -5292.1778311941425, 0.156, 0.854, 0.47200000000000003, 192.0, 0.0, 0.0, 0.0, 0.0, 0.0, 0.0, 0.0, 0.0, 0.0, 1.657492216539633E9, 0.0, 2022-07-10 18:30:16.539
95.0, 29979.21019544723, 11819.848337155383, -33367.71230312733, -55855.93651007849, -3375.0910610069113, 14836.12684442125, -28427.306226170807, -7642.642574625323, 0.156, 0.854, 0.47200000000000003, 192.0, 0.0, 0.0, 0.0, 0.0, 0.0, 0.0, 0.0, 0.0, 0.0, 1.657492216539665E9, 0.0, 2022-07-10 18:30:16.539
96.0, 20397.2632166461, 11432.425550511545, -32418.61253006608, -56052.07306767382, -2033.6958210105684, 1268.1038699273909, -27135.46480363188, -9177.559218115714, 0.156, 0.854, 0.47200000000000003, 192.0, 0.0, 0.0, 0.0, 0.0, 0.0, 0.0, 0.0, 0.0, 0.0, 1.657492216547768E9, 0.0, 2022-07-10 18:30:16.547
97.0, 19489.60357780499, 12049.57956666703, -32011.631967023848, -53907.13261450918, -2195.209526444617, -129.7518765630575, -27181.352934998624, -7134.877995834112, 0.156, 0.854, 0.47200000000000003, 192.0, 0.0, 0.0, 0.0, 0.0, 0.0, 0.0, 0.0, 0.0, 0.0, 1.657492216547788E9, 0.0, 2022-07-10 18:30:16.547
98.0, 29299.404239583524, 12552.069133766787, -32940.16813518621, -53355.64802356339, -3622.14489247142, 13714.650418120673, -28519.954206938055, -5214.12553955621, 0.156, 0.854, 0.47200000000000003, 192.0, 0.0, 0.0, 0.0, 0.0, 0.0, 0.0, 0.0, 0.0, 0.0, 1.65749221655581E9, 0.0, 2022-07-10 18:30:16.555
99.0, 31189.199529790825, 12018.890621529892, -33425.26804509974, -55486.88685737692, -3575.8767814489347, 16496.906160939474, -28530.258361131953, -7091.180335423986, 0.156, 0.854, 0.47200000000000003, 192.0, 0.0, 0.0, 0.0, 0.0, 0.0, 0.0, 0.0, 0.0, 0.0, 1.657492216555845E9, 0.0, 2022-07-10 18:30:16.555
100.0, 21989.64619513109, 11483.722804036475, -32566.64813359358, -56221.63340111177, -2164.520581307481, 3507.5251469046057, -27195.032202605275, -9118.192984842419, 0.156, 0.854, 0.47200000000000003, 192.0, 0.0, 0.0, 0.0, 0.0, 0.0, 0.0, 0.0, 0.0, 0.0, 1.657492216562378E9, 0.0, 2022-07-10 18:30:16.562
101.0, 18551.85849092704, 11910.886992321848, -31942.475669679126, -54282.32899693597, -1964.29365447684, -1454.2268460067328, -26936.601333213013, -7621.251955181594, 0.156, 0.854, 0.47200000000000003, 192.0, 0.0, 0.0, 0.0, 0.0, 0.0, 0.0, 0.0, 0.0, 0.0, 1.657492216562397E9, 0.0, 2022-07-10 18:30:16.562
102.0, 27603.152704614724, 12507.924438467555, -32752.838164906287, -53193.62022800687, -3412.641991691827, 11297.666883190499, -28299.70011707546, -5282.410118867174, 0.11, 0.86, 0.47200000000000003, 192.0, 3.0, 112.0, 26.0, 224.0, 14.0, 192.0, 0.0, 0.0, 0.0, 1.657492216570889E9, 0.0, 2022-07-10 18:30:16.570
103.0, 31968.358989758373, 12093.59015149953, -33478.889880048024, -55115.423216274176, -3760.0998592495753, 17558.614022566562, -28699.48341840308, -6613.523556414075, 0.11, 0.86, 0.47200000000000003, 192.0, 0.0, 0.0, 0.0, 0.0, 0.0, 0.0, 0.0, 0.0, 0.0, 1.657492216570919E9, 0.0, 2022-07-10 18:30:16.570
104.0, 23937.041930799714, 11483.342824380736, -32777.44743555158, -56312.80616674497, -2423.1526163998387, 6182.023129704372, -27464.504833758456, -8970.82793364858, 0.11, 0.86, 0.47200000000000003, 192.0, 0.0, 0.0, 0.0, 0.0, 0.0, 0.0, 0.0, 0.0, 0.0, 1.657492216579799E9, 0.0, 2022-07-10 18:30:16.579
105.0, 18111.350311201848, 11746.825188019895, -31965.833242634922, -54761.41628759102, -1833.9159290690338, -2074.5548098748695, -26829.134145871896, -8181.051395064759, 0.11, 0.86, 0.47200000000000003, 192.0, 0.0, 0.0, 0.0, 0.0, 0.0, 0.0, 0.0, 0.0, 0.0, 1.657492216579827E9, 0.0, 2022-07-10 18:30:16.579
106.0, 24984.489379464314, 12410.73905357588, -32498.363554282616, -53212.95448696071, -3064.5135718004194, 7800.512945713156, -27944.463842447265, -5645.536559288092, 0.11, 0.86, 0.47200000000000003, 192.0, 0.0, 0.0, 0.0, 0.0, 0.0, 0.0, 0.0, 0.0, 0.0, 1.657492216586323E9, 0.0, 2022-07-10 18:30:16.586
107.0, 31130.63795931792, 12222.55971700665, -33342.991273759755, -54624.60125978009, -3734.887091503989, 16656.654078561554, -28658.982057450066, -6214.924897542584, 0.11, 0.86, 0.47200000000000003, 192.0, 0.0, 0.0, 0.0, 0.0, 0.0, 0.0, 0.0, 0.0, 0.0, 1.657492216593584E9, 0.0, 2022-07-10 18:30:16.593
108.0, 29843.266885670055, 12022.109272731457, -33092.5623288825, -55385.09701312745, -3191.1585558841894, 13283.82054374463, -28192.411743689987, -7641.145007746817, 0.11, 0.86, 0.47200000000000003, 192.0, 0.0, 0.0, 0.0, 0.0, 0.0, 0.0, 0.0, 0.0, 0.0, 1.657492216593602E9, 0.0, 2022-07-10 18:30:16.593
109.0, 28835.069100268975, 12116.277172121665, -32798.458075339564, -55030.28542164391, -2901.412892510044, 9968.073364266558, -27894.507693589654, -7615.284039412027, 0.11, 0.86, 0.47200000000000003, 192.0, 0.0, 0.0, 0.0, 0.0, 0.0, 0.0, 0.0, 0.0, 0.0, 1.657492216601633E9, 0.0, 2022-07-10 18:30:16.601
110.0, 27489.82936022632, 11824.698665702184, -32781.984839676006, -54796.10619498565, -2933.755866736873, 9944.894605266405, -27859.66132398383, -7117.309524692241, 0.11, 0.86, 0.47200000000000003, 192.0, 0.0, 0.0, 0.0, 0.0, 0.0, 0.0, 0.0, 0.0, 0.0, 1.657492216601669E9, 0.0, 2022-07-10 18:30:16.601
111.0, 26261.422188451554, 11643.314259447368, -32861.89232610373, -54884.93202745105, -3005.1026350382135, 10627.852157098312, -27935.545496409595, -7057.049221640733, 0.11, 0.86, 0.47200000000000003, 192.0, 0.0, 0.0, 0.0, 0.0, 0.0, 0.0, 0.0, 0.0, 0.0, 1.657492216608618E9, 0.0, 2022-07-10 18:30:16.608
112.0, 26240.120975985647, 11940.480701980676, -32766.137452857194, -54985.26900831092, -2858.5645983892205, 9182.498953640337, -27834.090928326958, -7429.697505199612, 0.056, 0.86, 0.47200000000000003, 192.0, 1.0, 192.0, 26.0, 224.0, 14.0, 192.0, 0.0, 0.0, 0.0, 1.657492216608642E9, 0.0, 2022-07-10 18:30:16.608
113.0, 26679.064533598965, 12160.243053465254, -32616.514875473367, -54832.830111125724, -2703.8905267584955, 7375.27100745094, -27656.171042462713, -7460.341746847838, 0.056, 0.86, 0.47200000000000003, 192.0, 0.0, 0.0, 0.0, 0.0, 0.0, 0.0, 0.0, 0.0, 0.0, 1.657492216615046E9, 0.0, 2022-07-10 18:30:16.615
114.0, 26198.99376618788, 11913.345684211932, -32665.644009786134, -54686.20266749891, -2795.1303476250587, 7937.596194457555, -27693.654917914264, -7070.2814543582745, 0.056, 0.86, 0.47200000000000003, 192.0, 0.0, 0.0, 0.0, 0.0, 0.0, 0.0, 0.0, 0.0, 0.0, 1.657492216615107E9, 0.0, 2022-07-10 18:30:16.615
115.0, 25261.919231643587, 11681.111059321292, -32793.04895318138, -54800.330674687706, -2923.1164363761472, 9387.28563633986, -27797.076439508968, -6966.457601363373, 0.056, 0.86, 0.47200000000000003, 192.0, 0.0, 0.0, 0.0, 0.0, 0.0, 0.0, 0.0, 0.0, 0.0, 1.657492216622616E9, 0.0, 2022-07-10 18:30:16.622
116.0, 25337.44577615807, 11889.764593811584, -32757.77790043091, -54945.25938573592, -2836.1905021894577, 8713.648761945817, -27746.315627850967, -7323.169091125619, 0.056, 0.86, 0.47200000000000003, 192.0, 0.0, 0.0, 0.0, 0.0, 0.0, 0.0, 0.0, 0.0, 0.0, 1.657492216622642E9, 0.0, 2022-07-10 18:30:16.622
117.0, 26042.933886400926, 12176.40336470644, -32611.865712626663, -54837.166349550054, -2681.382320092001, 7039.77132317678, -27608.114791883803, -7451.37869732126, 0.056, 0.86, 0.47200000000000003, 192.0, 0.0, 0.0, 0.0, 0.0, 0.0, 0.0, 0.0, 0.0, 0.0, 1.657492216630936E9, 0.0, 2022-07-10 18:30:16.630
118.0, 25900.396812009432, 11994.348406117966, -32619.040622596818, -54664.633234099536, -2735.16061725147, 7317.8046724563455, -27646.76095804703, -7104.83725128618, 0.056, 0.86, 0.47200000000000003, 192.0, 0.0, 0.0, 0.0, 0.0, 0.0, 0.0, 0.0, 0.0, 0.0, 1.657492216630981E9, 0.0, 2022-07-10 18:30:16.630
119.0, 24985.204635286886, 11690.096460592325, -32756.079167852306, -54735.957650656426, -2887.66656967003, 8960.948462599334, -27788.06868649348, -6907.963086123835, 0.056, 0.86, 0.47200000000000003, 192.0, 0.0, 0.0, 0.0, 0.0, 0.0, 0.0, 0.0, 0.0, 0.0, 1.657492216638932E9, 0.0, 2022-07-10 18:30:16.638
120.0, 24927.023044469723, 11854.672355016752, -32747.00435960345, -54889.58119029775, -2838.2021591904354, 8795.433794907785, -27753.512889565576, -7222.563889332282, 0.056, 0.86, 0.47200000000000003, 192.0, 0.0, 0.0, 0.0, 0.0, 0.0, 0.0, 0.0, 0.0, 0.0, 1.657492216639016E9, 0.0, 2022-07-10 18:30:16.639
121.0, 25718.453612143232, 12180.784306619682, -32603.081477055726, -54831.75722739187, -2678.38718633499, 7146.322088995229, -27612.428678563676, -7457.480723557559, 0.056, 0.86, 0.47200000000000003, 192.0, 0.0, 0.0, 0.0, 0.0, 0.0, 0.0, 0.0, 0.0, 0.0, 1.657492216644961E9, 0.0, 2022-07-10 18:30:16.644
122.0, 25848.138433472926, 12091.399680542909, -32579.254517466372, -54656.92188226246, -2694.0781109426157, 7005.349636715608, -27600.135219113257, -7180.22968533393, 0.034, 0.86, 0.47400000000000003, 192.0, 1.0, 16.0, 26.0, 224.0, 14.0, 208.0, 0.0, 0.0, 0.0, 1.657492216652794E9, 0.0, 2022-07-10 18:30:16.652
123.0, 24991.61958594556, 11757.71048756963, -32715.756620854932, -54676.21143772739, -2856.441182665966, 8664.609034610872, -27741.755871982084, -6889.500545203751, 0.034, 0.86, 0.47400000000000003, 192.0, 0.0, 0.0, 0.0, 0.0, 0.0, 0.0, 0.0, 0.0, 0.0, 1.657492216652859E9, 0.0, 2022-07-10 18:30:16.652
124.0, 24744.051664358576, 11820.563592977953, -32749.351292771258, -54844.67653568704, -2855.7482785878515, 8947.716229881791, -27761.090130935925, -7132.374600455118, 0.034, 0.86, 0.47400000000000003, 192.0, 0.0, 0.0, 0.0, 0.0, 0.0, 0.0, 0.0, 0.0, 0.0, 1.657492216660397E9, 0.0, 2022-07-10 18:30:16.660
125.0, 25510.358871264325, 12149.089532982056, -32617.74422141841, -54837.05459082778, -2699.263715656247, 7375.472173151037, -27624.006882191527, -7432.200900578607, 0.034, 0.86, 0.47400000000000003, 192.0, 0.0, 0.0, 0.0, 0.0, 0.0, 0.0, 0.0, 0.0, 0.0, 1.657492216660425E9, 0.0, 2022-07-10 18:30:16.660
126.0, 25857.704980099796, 12167.485018668775, -32566.20109870447, -54670.17646672446, -2675.4814595558, 6818.891384469436, -27585.807750917407, -7244.692116343036, 0.034, 0.86, 0.47400000000000003, 192.0, 0.0, 0.0, 0.0, 0.0, 0.0, 0.0, 0.0, 0.0, 0.0, 1.657492216668585E9, 0.0, 2022-07-10 18:30:16.668
127.0, 25071.68353458447, 11801.341092746388, -32681.536100093857, -54647.06476295767, -2820.968964215394, 8342.207472587523, -27720.454659516177, -6904.431510499896, 0.034, 0.86, 0.47400000000000003, 192.0, 0.0, 0.0, 0.0, 0.0, 0.0, 0.0, 0.0, 0.0, 0.0, 1.657492216668613E9, 0.0, 2022-07-10 18:30:16.668
128.0, 24628.046110635532, 11769.936891786683, -32749.507754982445, -54815.082826028214, -2869.159325261036, 9050.422495653927, -27792.516683640086, -7080.0715184297, 0.034, 0.86, 0.47400000000000003, 192.0, 0.0, 0.0, 0.0, 0.0, 0.0, 0.0, 0.0, 0.0, 0.0, 1.657492216677588E9, 0.0, 2022-07-10 18:30:16.677
129.0, 25321.419575383614, 12109.370483084975, -32635.08917511573, -54845.838826398714, -2721.3695909225453, 7668.302377260015, -27635.00394046354, -7417.605211449291, 0.034, 0.86, 0.47400000000000003, 192.0, 0.0, 0.0, 0.0, 0.0, 0.0, 0.0, 0.0, 0.0, 0.0, 1.657492216677609E9, 0.0, 2022-07-10 18:30:16.677
130.0, 25860.051913267605, 12193.234228281288, -32547.515040339833, -54683.229885486355, -2652.012127877728, 6745.3764969559315, -27554.917640080173, -7307.187593840074, 0.034, 0.86, 0.47400000000000003, 192.0, 0.0, 0.0, 0.0, 0.0, 0.0, 0.0, 0.0, 0.0, 0.0, 1.657492216687712E9, 0.0, 2022-07-10 18:30:16.687
131.0, 25221.730795112944, 11868.508084834586, -32642.912285675084, -54612.50896602976, -2788.134251610548, 8032.3452392036015, -27696.42653422672, -6939.702563250371, 0.034, 0.86, 0.47400000000000003, 192.0, 0.0, 0.0, 0.0, 0.0, 0.0, 0.0, 0.0, 0.0, 0.0, 1.657492216687742E9, 0.0, 2022-07-10 18:30:16.687
132.0, 24596.35133699791, 11753.41895263421, -32738.935379855084, -54770.28993013978, -2865.5159909148206, 9082.921932091944, -27781.36316315689, -7034.4739597408725, 0.036000000000000004, 0.868, 0.466, 192.0, 1.0, 32.0, 27.0, 32.0, 14.0, 144.0, 0.0, 0.0, 0.0, 1.657492216693804E9, 0.0, 2022-07-10 18:30:16.693
133.0, 25145.243125586883, 12060.420162727853, -32664.526422563365, -54844.63183219812, -2750.4268587144447, 7963.770087214719, -27656.059283740437, -7371.895894038188, 0.036000000000000004, 0.868, 0.466, 192.0, 0.0, 0.0, 0.0, 0.0, 0.0, 0.0, 0.0, 0.0, 0.0, 1.657492216693832E9, 0.0, 2022-07-10 18:30:16.693
134.0, 25831.97812223174, 12229.600516510072, -32549.705511296455, -54705.49222296384, -2646.580653975088, 6744.370668455443, -27578.07404733587, -7354.595643829781, 0.036000000000000004, 0.868, 0.466, 192.0, 0.0, 0.0, 0.0, 0.0, 0.0, 0.0, 0.0, 0.0, 0.0, 1.65749221670013E9, 0.0, 2022-07-10 18:30:16.700
135.0, 25375.555500454368, 11938.60315544643, -32605.629575923635, -54584.882209883006, -2746.6494139014976, 7722.058322675029, -27651.633638338288, -6965.250607162787, 0.036000000000000004, 0.868, 0.466, 192.0, 0.0, 0.0, 0.0, 0.0, 0.0, 0.0, 0.0, 0.0, 0.0, 1.657492216700192E9, 0.0, 2022-07-10 18:30:16.700
136.0, 24621.765270443593, 11745.685249052674, -32723.37856571419, -54717.9644963699, -2853.937787286972, 9075.568208166147, -27714.643205957796, -6920.837690930091, 0.036000000000000004, 0.868, 0.466, 192.0, 0.0, 0.0, 0.0, 0.0, 0.0, 0.0, 0.0, 0.0, 0.0, 1.657492216706199E9, 0.0, 2022-07-10 18:30:16.706
137.0, 24984.310565508673, 12024.09857798798, -32656.524498048366, -54821.855404598165, -2738.1110475195705, 8266.323300161755, -27602.45980053661, -7277.102145803231, 0.036000000000000004, 0.868, 0.466, 192.0, 0.0, 0.0, 0.0, 0.0, 0.0, 0.0, 0.0, 0.0, 0.0, 1.657492216712734E9, 0.0, 2022-07-10 18:30:16.712
138.0, 25772.678944191808, 12257.137865679011, -32537.501458823856, -54716.82455740268, -2613.0753890365827, 6836.0128207222015, -27482.833264211808, -7375.874504551233, 0.036000000000000004, 0.868, 0.466, 192.0, 0.0, 0.0, 0.0, 0.0, 0.0, 0.0, 0.0, 0.0, 0.0, 1.657492216712879E9, 0.0, 2022-07-10 18:30:16.712
139.0, 25517.4220225122, 12028.256002456666, -32570.023247006327, -54579.02605283571, -2689.8536312405627, 7427.1047028427965, -27536.231581715536, -7014.804424620203, 0.036000000000000004, 0.868, 0.466, 192.0, 0.0, 0.0, 0.0, 0.0, 0.0, 0.0, 0.0, 0.0, 0.0, 1.657492216719698E9, 0.0, 2022-07-10 18:30:16.719
140.0, 24676.281175170086, 11750.155597943736, -32704.983080027472, -54677.53019065025, -2835.2964324112454, 8968.212779547308, -27682.00965905305, -6876.000091552746, 0.036000000000000004, 0.868, 0.466, 192.0, 0.0, 0.0, 0.0, 0.0, 0.0, 0.0, 0.0, 0.0, 0.0, 1.65749221671972E9, 0.0, 2022-07-10 18:30:16.719
141.0, 24829.189458988843, 11943.788760160061, -32689.582728097765, -54826.79514012279, -2780.981693384849, 8535.192434214645, -27661.490757643078, -7234.6338313381475, 0.036000000000000004, 0.868, 0.466, 192.0, 0.0, 0.0, 0.0, 0.0, 0.0, 0.0, 0.0, 0.0, 0.0, 1.657492216727469E9, 0.0, 2022-07-10 18:30:16.727
142.0, 25661.16609110428, 12235.27785960172, -32568.816252805744, -54760.29870036825, -2647.832351664585, 6981.768546315258, -27550.402587700202, -7424.489548741526, 0.044, 0.868, 0.464, 192.0, 1.0, 96.0, 27.0, 32.0, 14.0, 128.0, 0.0, 0.0, 0.0, 1.657492216727516E9, 0.0, 2022-07-10 18:30:16.727
143.0, 25634.142832057816, 12079.553255981597, -32565.865822537642, -54604.0376548812, -2686.255000383258, 7150.703030908469, -27567.233451275046, -7118.829443315201, 0.044, 0.868, 0.464, 192.0, 0.0, 0.0, 0.0, 0.0, 0.0, 0.0, 0.0, 0.0, 0.0, 1.65749221673519E9, 0.0, 2022-07-10 18:30:16.735
144.0, 24759.094388376998, 11744.053571707436, -32702.03264975937, -54666.06374574468, -2838.7162493129076, 8765.013070704112, -27687.687002144696, -6894.954370850846, 0.044, 0.868, 0.464, 192.0, 0.0, 0.0, 0.0, 0.0, 0.0, 0.0, 0.0, 0.0, 0.0, 1.65749221673522E9, 0.0, 2022-07-10 18:30:16.735
145.0, 24689.535759632083, 11858.91918646326, -32714.728440609986, -54826.839843611706, -2817.482092080366, 8729.786721442548, -27689.564548678944, -7192.5454965288045, 0.044, 0.868, 0.464, 192.0, 0.0, 0.0, 0.0, 0.0, 0.0, 0.0, 0.0, 0.0, 0.0, 1.657492216742261E9, 0.0, 2022-07-10 18:30:16.742
146.0, 25533.738795964575, 12195.759975404737, -32598.186445020016, -54792.23934319489, -2675.5261630447108, 7183.001301646388, -27570.74267515453, -7448.785894964444, 0.044, 0.868, 0.464, 192.0, 0.0, 0.0, 0.0, 0.0, 0.0, 0.0, 0.0, 0.0, 0.0, 1.657492216742316E9, 0.0, 2022-07-10 18:30:16.742
147.0, 25736.71498736322, 12139.321820655086, -32567.87747953862, -54633.586661051115, -2682.0752241701157, 6944.75405749727, -27563.16543378418, -7214.964296217478, 0.044, 0.868, 0.464, 192.0, 0.0, 0.0, 0.0, 0.0, 0.0, 0.0, 0.0, 0.0, 0.0, 1.65749221675114E9, 0.0, 2022-07-10 18:30:16.751
148.0, 24882.36425904802, 11785.80663034995, -32688.75571355292, -54645.18721642342, -2838.380973146078, 8504.123509421768, -27701.455676729165, -6918.289592062187, 0.044, 0.868, 0.464, 192.0, 0.0, 0.0, 0.0, 0.0, 0.0, 0.0, 0.0, 0.0, 0.0, 1.657492216751166E9, 0.0, 2022-07-10 18:30:16.751
149.0, 24585.175464770255, 11827.291468059, -32725.837257604275, -54806.45505266846, -2846.1370284720697, 8874.022528412645, -27716.453697258676, -7137.537853424294, 0.044, 0.868, 0.464, 192.0, 0.0, 0.0, 0.0, 0.0, 0.0, 0.0, 0.0, 0.0, 0.0, 1.65749221675773E9, 0.0, 2022-07-10 18:30:16.757
150.0, 25377.522453966434, 12162.54528314415, -32616.134895817628, -54805.24805846788, -2708.3385239051013, 7419.214537050073, -27582.07500959337, -7426.344743531316, 0.044, 0.868, 0.464, 192.0, 0.0, 0.0, 0.0, 0.0, 0.0, 0.0, 0.0, 0.0, 0.0, 1.657492216757774E9, 0.0, 2022-07-10 18:30:16.757
151.0, 25808.10645915347, 12179.443201952363, -32561.842508535687, -54652.2503676713, -2670.832296709096, 6820.791282748138, -27528.430822900635, -7267.334433476261, 0.044, 0.868, 0.464, 192.0, 0.0, 0.0, 0.0, 0.0, 0.0, 0.0, 0.0, 0.0, 0.0, 1.657492216764839E9, 0.0, 2022-07-10 18:30:16.764
152.0, 25034.33376959965, 11830.510119260565, -32656.36803583718, -54611.369027062545, -2802.5511267842207, 8223.184433363012, -27640.256600410536, -6918.378999040008, 0.048, 0.874, 0.466, 192.0, 1.0, 128.0, 27.0, 80.0, 14.0, 144.0, 0.0, 0.0, 0.0, 1.65749221676486E9, 0.0, 2022-07-10 18:30:16.764
153.0, 24522.724690762127, 11769.221635964113, -32732.229856518494, -54769.95465397295, -2857.0223280218042, 8978.807506419123, -27701.76860115154, -7049.628442481571, 0.048, 0.874, 0.466, 192.0, 0.0, 0.0, 0.0, 0.0, 0.0, 0.0, 0.0, 0.0, 0.0, 1.657492216772063E9, 0.0, 2022-07-10 18:30:16.772
154.0, 25214.89116130962, 12100.183916113845, -32649.729567733953, -54822.99534356539, -2740.0780010316375, 7719.57727904049, -27616.161419887714, -7406.295228754906, 0.048, 0.874, 0.466, 192.0, 0.0, 0.0, 0.0, 0.0, 0.0, 0.0, 0.0, 0.0, 0.0, 1.657492216779484E9, 0.0, 2022-07-10 18:30:16.779
155.0, 25822.769203516153, 12212.859059913048, -32561.037845735296, -54685.80033609871, -2670.228799608803, 6765.3366047545205, -27538.466756161066, -7343.397419857672, 0.048, 0.874, 0.466, 192.0, 0.0, 0.0, 0.0, 0.0, 0.0, 0.0, 0.0, 0.0, 0.0, 1.65749221677951E9, 0.0, 2022-07-10 18:30:16.779
156.0, 25185.833893517723, 11872.30788139199, -32632.40696578109, -54604.730558959316, -2767.950626367405, 7905.94612430884, -27614.105059397825, -6946.653955775972, 0.048, 0.874, 0.466, 192.0, 0.0, 0.0, 0.0, 0.0, 0.0, 0.0, 0.0, 0.0, 0.0, 1.657492216787627E9, 0.0, 2022-07-10 18:30:16.787
157.0, 24493.153332847756, 11731.51424306801, -32736.834315876284, -54752.25207236434, -2859.436316422977, 8983.479021010282, -27709.926987877727, -6978.259322435775, 0.048, 0.874, 0.466, 192.0, 0.0, 0.0, 0.0, 0.0, 0.0, 0.0, 0.0, 0.0, 0.0, 1.65749221678769E9, 0.0, 2022-07-10 18:30:16.787
158.0, 25030.802193975713, 12035.453264171276, -32676.641068058143, -54838.57450945074, -2771.6610159469865, 7992.067395695138, -27657.288629685478, -7350.840550761289, 0.048, 0.874, 0.466, 192.0, 0.0, 0.0, 0.0, 0.0, 0.0, 0.0, 0.0, 0.0, 0.0, 1.657492216795447E9, 0.0, 2022-07-10 18:30:16.795
159.0, 25795.835351447506, 12212.188507579387, -32583.322534957235, -54723.73124643937, -2690.0771486851154, 6796.96432315878, -27607.399536061235, -7396.773385616945, 0.048, 0.874, 0.466, 192.0, 0.0, 0.0, 0.0, 0.0, 0.0, 0.0, 0.0, 0.0, 0.0, 1.657492216795469E9, 0.0, 2022-07-10 18:30:16.795
160.0, 25361.093921791784, 11925.16975702879, -32635.826782682754, -54624.28833535771, -2774.700853192908, 7627.84571979591, -27644.302266156945, -7036.083285341655, 0.048, 0.874, 0.466, 192.0, 0.0, 0.0, 0.0, 0.0, 0.0, 0.0, 0.0, 0.0, 0.0, 1.657492216802292E9, 0.0, 2022-07-10 18:30:16.802
161.0, 24515.728594747616, 11692.93513213815, -32748.591333459775, -54746.6194327616, -2875.7754416198068, 8929.81248257309, -27692.134999291302, -6955.1699704134435, 0.048, 0.874, 0.466, 192.0, 0.0, 0.0, 0.0, 0.0, 0.0, 0.0, 0.0, 0.0, 0.0, 1.657492216802333E9, 0.0, 2022-07-10 18:30:16.802
162.0, 24851.809424377614, 11952.997678875647, -32700.959766025517, -54851.225596812445, -2785.3402835536344, 8249.827712753739, -27616.02730942098, -7295.363521023217, 0.052000000000000005, 0.87, 0.47000000000000003, 192.0, 1.0, 160.0, 27.0, 48.0, 14.0, 176.0, 0.0, 0.0, 0.0, 1.657492216810148E9, 0.0, 2022-07-10 18:30:16.810
163.0, 25734.412757684324, 12206.689978443383, -32587.479959425924, -54751.08978165267, -2678.6554072684535, 6891.847478371558, -27511.510552347965, -7403.814185120366, 0.052000000000000005, 0.87, 0.47000000000000003, 192.0, 0.0, 0.0, 0.0, 0.0, 0.0, 0.0, 0.0, 0.0, 0.0, 1.657492216810282E9, 0.0, 2022-07-10 18:30:16.810
164.0, 25519.27721730199, 11991.867362483426, -32613.229169038437, -54627.81991098165, -2741.955547565883, 7354.93091999661, -27557.577497670354, -7073.343643348652, 0.052000000000000005, 0.87, 0.47000000000000003, 192.0, 0.0, 0.0, 0.0, 0.0, 0.0, 0.0, 0.0, 0.0, 0.0, 1.657492216818011E9, 0.0, 2022-07-10 18:30:16.818
165.0, 24573.57490939795, 11701.004111886516, -32732.967464085516, -54706.31923750869, -2866.18654324848, 8790.136431471878, -27681.00383055256, -6917.551984495161, 0.052000000000000005, 0.87, 0.47000000000000003, 192.0, 0.0, 0.0, 0.0, 0.0, 0.0, 0.0, 0.0, 0.0, 0.0, 1.657492216818033E9, 0.0, 2022-07-10 18:30:16.818
166.0, 24687.50175088665, 11874.453648859699, -32733.28038850789, -54847.42580025504, -2837.7551243013295, 8474.730965463039, -27663.882394299795, -7236.712543572491, 0.052000000000000005, 0.87, 0.47000000000000003, 192.0, 0.0, 0.0, 0.0, 0.0, 0.0, 0.0, 0.0, 0.0, 0.0, 1.657492216825161E9, 0.0, 2022-07-10 18:30:16.825
167.0, 25619.97182607315, 12183.958254332336, -32619.621767952656, -54787.27725592581, -2713.0100384962607, 7049.159055848009, -27547.83213708784, -7433.094970356819, 0.052000000000000005, 0.87, 0.47000000000000003, 192.0, 0.0, 0.0, 0.0, 0.0, 0.0, 0.0, 0.0, 0.0, 0.0, 1.657492216825211E9, 0.0, 2022-07-10 18:30:16.825
168.0, 25653.678256711755, 12037.844900827993, -32612.22334053795, -54653.300899660695, -2732.456056172378, 7128.17247249752, -27562.092550050325, -7158.459086234461, 0.052000000000000005, 0.87, 0.47000000000000003, 192.0, 0.0, 0.0, 0.0, 0.0, 0.0, 0.0, 0.0, 0.0, 0.0, 1.65749221683184E9, 0.0, 2022-07-10 18:30:16.831
169.0, 24678.628108337893, 11695.282065305957, -32731.536952440376, -54698.8090513717, -2868.4887729273764, 8599.69956871266, -27687.597595166877, -6920.927097907913, 0.052000000000000005, 0.87, 0.47000000000000003, 192.0, 0.0, 0.0, 0.0, 0.0, 0.0, 0.0, 0.0, 0.0, 0.0, 1.657492216839804E9, 0.0, 2022-07-10 18:30:16.839
170.0, 24546.1940224402, 11801.05052006847, -32761.57769698831, -54844.229500797934, -2868.1982002494574, 8662.373860165342, -27700.62866218432, -7187.650464493092, 0.052000000000000005, 0.87, 0.47000000000000003, 192.0, 0.0, 0.0, 0.0, 0.0, 0.0, 0.0, 0.0, 0.0, 0.0, 1.657492216839846E9, 0.0, 2022-07-10 18:30:16.839
171.0, 25481.726286617075, 12137.936012498858, -32642.107622874693, -54812.221802737935, -2735.4958934182996, 7260.092468272743, -27574.251899034014, -7442.326240816861, 0.052000000000000005, 0.87, 0.47000000000000003, 192.0, 0.0, 0.0, 0.0, 0.0, 0.0, 0.0, 0.0, 0.0, 0.0, 1.657492216849141E9, 0.0, 2022-07-10 18:30:16.849
172.0, 25764.4311504878, 12079.754421681693, -32602.299165999793, -54669.05887950169, -2724.9235182909392, 6950.029069188723, -27562.517233194976, -7233.2256714374635, 0.056, 0.866, 0.468, 192.0, 1.0, 192.0, 27.0, 16.0, 14.0, 160.0, 0.0, 0.0, 0.0, 1.657492216849162E9, 0.0, 2022-07-10 18:30:16.849
173.0, 24828.72007235528, 11722.305324352423, -32709.989870785463, -54677.776059839256, -2858.0505082667482, 8352.109295381224, -27679.550967162966, -6935.165159125943, 0.056, 0.866, 0.468, 192.0, 0.0, 0.0, 0.0, 0.0, 0.0, 0.0, 0.0, 0.0, 0.0, 1.657492216855578E9, 0.0, 2022-07-10 18:30:16.855
174.0, 24450.573259660396, 11754.08950496787, -32747.809022403842, -54817.92149757403, -2871.1709822620132, 8782.626245334894, -27695.39835398178, -7115.387274669084, 0.056, 0.866, 0.468, 192.0, 0.0, 0.0, 0.0, 0.0, 0.0, 0.0, 0.0, 0.0, 0.0, 1.657492216855653E9, 0.0, 2022-07-10 18:30:16.855
175.0, 25314.021147968906, 12094.931256166847, -32658.17852713806, -54823.01769530984, -2762.317986764668, 7496.037482742964, -27615.2673501095, -7426.344743531316, 0.056, 0.866, 0.468, 192.0, 0.0, 0.0, 0.0, 0.0, 0.0, 0.0, 0.0, 0.0, 0.0, 1.657492216862609E9, 0.0, 2022-07-10 18:30:16.862
176.0, 25834.16859318836, 12128.660038549906, -32597.337078730714, -54693.35522572461, -2716.452207142378, 6852.396649407941, -27546.82630858735, -7300.415015270116, 0.056, 0.866, 0.468, 192.0, 0.0, 0.0, 0.0, 0.0, 0.0, 0.0, 0.0, 0.0, 0.0, 1.657492216862634E9, 0.0, 2022-07-10 18:30:16.862
177.0, 25007.489324508828, 11778.408202935243, -32685.80528328482, -54666.1531527225, -2825.2381474063573, 8079.350957793112, -27626.17500140369, -6972.179647943932, 0.056, 0.866, 0.468, 192.0, 0.0, 0.0, 0.0, 0.0, 0.0, 0.0, 0.0, 0.0, 0.0, 1.657492216870422E9, 0.0, 2022-07-10 18:30:16.870
178.0, 24376.320764579865, 11704.625094488276, -32760.214240576537, -54804.91278230105, -2886.57133419172, 8839.287917529096, -27705.277825031022, -7079.512724818316, 0.056, 0.866, 0.468, 192.0, 0.0, 0.0, 0.0, 0.0, 0.0, 0.0, 0.0, 0.0, 0.0, 1.657492216870454E9, 0.0, 2022-07-10 18:30:16.870
179.0, 25124.21013405444, 12017.32599941802, -32691.214405443003, -54844.34125952021, -2788.424824288467, 7761.263282449638, -27635.339216630367, -7400.148499029697, 0.056, 0.866, 0.468, 192.0, 0.0, 0.0, 0.0, 0.0, 0.0, 0.0, 0.0, 0.0, 0.0, 1.657492216877461E9, 0.0, 2022-07-10 18:30:16.877
180.0, 25849.59129686252, 12138.383047387964, -32613.74325916091, -54728.55922324172, -2722.8448060565956, 6827.228585151266, -27580.3092217814, -7368.721946325535, 0.056, 0.866, 0.468, 192.0, 0.0, 0.0, 0.0, 0.0, 0.0, 0.0, 0.0, 0.0, 0.0, 1.657492216877482E9, 0.0, 2022-07-10 18:30:16.877
181.0, 25188.471399363447, 11818.373122021332, -32679.09975994823, -54661.01225149778, -2822.3994758605336, 7815.823890665042, -27635.205106163634, -6994.397281932507, 0.056, 0.866, 0.468, 192.0, 0.0, 0.0, 0.0, 0.0, 0.0, 0.0, 0.0, 0.0, 0.0, 1.657492216885286E9, 0.0, 2022-07-10 18:30:16.885
182.0, 24371.06810463287, 11648.119884505259, -32777.1345111292, -54789.66889258253, -2910.7335699479067, 8859.650356727881, -27704.115534319346, -7005.19317450442, 0.058, 0.862, 0.468, 192.0, 1.0, 208.0, 26.0, 240.0, 14.0, 160.0, 0.0, 0.0, 0.0, 1.657492216885323E9, 0.0, 2022-07-10 18:30:16.885
183.0, 24922.84326825658, 11951.880091652882, -32707.84410331775, -54851.31500379027, -2809.323705354179, 8010.440529637401, -27628.141954915758, -7348.381858871206, 0.058, 0.862, 0.468, 192.0, 0.0, 0.0, 0.0, 0.0, 0.0, 0.0, 0.0, 0.0, 0.0, 1.657492216892001E9, 0.0, 2022-07-10 18:30:16.892
184.0, 25814.49905806769, 12158.700783097838, -32607.529474202332, -54741.92556642599, -2718.3968089099894, 6866.433544925874, -27552.034265045437, -7395.968722816554, 0.058, 0.862, 0.468, 192.0, 0.0, 0.0, 0.0, 0.0, 0.0, 0.0, 0.0, 0.0, 0.0, 1.65749221690002E9, 0.0, 2022-07-10 18:30:16.900
185.0, 25380.763456912453, 11870.87736974685, -32659.094948660728, -54663.96268176588, -2803.9592866849052, 7541.478579220603, -27622.03992867946, -7069.4544398134285, 0.058, 0.862, 0.468, 192.0, 0.0, 0.0, 0.0, 0.0, 0.0, 0.0, 0.0, 0.0, 0.0, 1.657492216900048E9, 0.0, 2022-07-10 18:30:16.900
186.0, 24414.363433642797, 11628.472701129043, -32773.87115643873, -54771.60868306264, -2914.9133461610495, 8788.996492504655, -27721.460488016666, -6997.794747089714, 0.058, 0.862, 0.468, 192.0, 0.0, 0.0, 0.0, 0.0, 0.0, 0.0, 0.0, 0.0, 0.0, 1.657492216908106E9, 0.0, 2022-07-10 18:30:16.908
187.0, 24744.923382392335, 11884.847210031416, -32743.00339734595, -54869.71048947698, -2858.385784433578, 8250.878244743139, -27715.827848413926, -7335.26138487594, 0.058, 0.862, 0.468, 192.0, 0.0, 0.0, 0.0, 0.0, 0.0, 0.0, 0.0, 0.0, 0.0, 1.657492216908131E9, 0.0, 2022-07-10 18:30:16.908
188.0, 25739.955990309238, 12166.45683842383, -32618.325366774247, -54773.486229596885, -2722.2636607007576, 6960.936720482912, -27539.718453850564, -7437.297098314417, 0.058, 0.862, 0.468, 192.0, 0.0, 0.0, 0.0, 0.0, 0.0, 0.0, 0.0, 0.0, 0.0, 1.657492216914663E9, 0.0, 2022-07-10 18:30:16.914
189.0, 25567.065246947437, 11959.725553956694, -32630.08238435774, -54658.64296658552, -2764.8884373770284, 7305.466509517016, -27541.171317240158, -7093.571972080705, 0.058, 0.862, 0.468, 192.0, 0.0, 0.0, 0.0, 0.0, 0.0, 0.0, 0.0, 0.0, 0.0, 1.657492216914686E9, 0.0, 2022-07-10 18:30:16.914
190.0, 24509.537161533495, 11649.282175216935, -32747.496097981468, -54742.75258097084, -2891.354607505156, 8654.818970539447, -27668.71037110214, -6931.946507924379, 0.058, 0.862, 0.468, 192.0, 0.0, 0.0, 0.0, 0.0, 0.0, 0.0, 0.0, 0.0, 0.0, 1.657492216923476E9, 0.0, 2022-07-10 18:30:16.923
191.0, 24582.739124624626, 11821.949401134181, -32742.53401071239, -54859.540445749815, -2862.8337815801838, 8459.710593189073, -27667.19045247918, -7221.535709087338, 0.058, 0.862, 0.468, 192.0, 0.0, 0.0, 0.0, 0.0, 0.0, 0.0, 0.0, 0.0, 0.0, 1.65749221692351E9, 0.0, 2022-07-10 18:30:16.923
192.0, 25622.74344238561, 12163.193483733356, -32621.387555764624, -54790.60766584965, -2724.901166546484, 7125.423207929517, -27559.74561688252, -7413.917173614165, 0.056, 0.854, 0.47000000000000003, 192.0, 1.0, 192.0, 26.0, 176.0, 14.0, 176.0, 0.0, 0.0, 0.0, 1.657492216930703E9, 0.0, 2022-07-10 18:30:16.930
193.0, 25714.76557430811, 12033.2404414702, -32606.367183490656, -54663.69446083242, -2738.3345649641237, 7094.197820925453, -27555.945820325116, -7169.32203403974, 0.056, 0.854, 0.47000000000000003, 192.0, 0.0, 0.0, 0.0, 0.0, 0.0, 0.0, 0.0, 0.0, 0.0, 1.657492216930724E9, 0.0, 2022-07-10 18:30:16.930
194.0, 24644.765215488103, 11661.106248033793, -32724.652615148145, -54711.97422885588, -2872.869714840617, 8472.58519799533, -27663.055379754947, -6931.767693968737, 0.056, 0.854, 0.47000000000000003, 192.0, 0.0, 0.0, 0.0, 0.0, 0.0, 0.0, 0.0, 0.0, 0.0, 1.657492216937342E9, 0.0, 2022-07-10 18:30:16.937
195.0, 24439.240925221555, 11744.56766182991, -32749.61951370472, -54842.15078856359, -2866.968854304416, 8635.842339496892, -27658.361513419335, -7159.397859501584, 0.056, 0.854, 0.47000000000000003, 192.0, 0.0, 0.0, 0.0, 0.0, 0.0, 0.0, 0.0, 0.0, 0.0, 1.657492216937373E9, 0.0, 2022-07-10 18:30:16.937
196.0, 25449.22685017906, 12090.237389831233, -32642.17467810806, -54809.31607595874, -2741.3744022100454, 7347.130161181708, -27560.72909363855, -7407.234002022029, 0.056, 0.854, 0.47000000000000003, 192.0, 0.0, 0.0, 0.0, 0.0, 0.0, 0.0, 0.0, 0.0, 0.0, 1.657492216945283E9, 0.0, 2022-07-10 18:30:16.945
197.0, 25827.507773340676, 12064.979918596735, -32601.82977936623, -54686.314426221186, -2722.040143256205, 6968.782182786726, -27529.615465356765, -7238.366572662184, 0.056, 0.854, 0.47000000000000003, 192.0, 0.0, 0.0, 0.0, 0.0, 0.0, 0.0, 0.0, 0.0, 0.0, 1.657492216945307E9, 0.0, 2022-07-10 18:30:16.945
198.0, 24833.2127729908, 11700.579428741865, -32707.821751573298, -54701.17833628396, -2855.7035750989407, 8251.414686610065, -27642.715292300618, -6954.5217698242395, 0.056, 0.854, 0.47000000000000003, 192.0, 0.0, 0.0, 0.0, 0.0, 0.0, 0.0, 0.0, 0.0, 0.0, 1.657492216952542E9, 0.0, 2022-07-10 18:30:16.952
199.0, 24360.853357416792, 11697.964274640593, -32755.430967263103, -54833.83593962622, -2880.938694588983, 8755.267710121598, -27688.134037033804, -7106.6700943315145, 0.056, 0.854, 0.47000000000000003, 192.0, 0.0, 0.0, 0.0, 0.0, 0.0, 0.0, 0.0, 0.0, 0.0, 1.657492216959978E9, 0.0, 2022-07-10 18:30:16.959
200.0, 25269.250603824927, 12055.838055114515, -32653.97639918046, -54829.477349457426, -2756.4394779729223, 7580.862352950854, -27590.926300397674, -7391.297208225395, 0.056, 0.854, 0.47000000000000003, 192.0, 0.0, 0.0, 0.0, 0.0, 0.0, 0.0, 0.0, 0.0, 0.0, 1.657492216960234E9, 0.0, 2022-07-10 18:30:16.960
201.0, 25880.302593744113, 12120.434596590352, -32593.06789553975, -54705.469871219386, -2713.322962918635, 6899.447071486363, -27541.30542770689, -7291.116689576708, 0.056, 0.854, 0.47000000000000003, 192.0, 0.0, 0.0, 0.0, 0.0, 0.0, 0.0, 0.0, 0.0, 0.0, 1.657492216966965E9, 0.0, 2022-07-10 18:30:16.966
202.0, 25030.981007931354, 11746.579318830887, -32695.23771944496, -54695.59040017014, -2848.7521825733406, 8026.824358323141, -27647.297399913958, -6978.549895113694, 0.064, 0.86, 0.47200000000000003, 192.0, 2.0, 0.0, 26.0, 224.0, 14.0, 192.0, 0.0, 0.0, 0.0, 1.657492216966988E9, 0.0, 2022-07-10 18:30:16.966
203.0, 24315.14404000569, 11648.902195561195, -32775.92751692862, -54837.32281176124, -2913.572241493731, 8825.988629578189, -27737.374930068843, -7073.522457304294, 0.064, 0.86, 0.47200000000000003, 192.0, 0.0, 0.0, 0.0, 0.0, 0.0, 0.0, 0.0, 0.0, 0.0, 1.657492216975083E9, 0.0, 2022-07-10 18:30:16.975
204.0, 25058.026618722277, 11998.014092208636, -32683.123073950184, -54860.27805331684, -2787.351940554612, 7831.000725150196, -27640.346007388354, -7381.238923220507, 0.064, 0.86, 0.47200000000000003, 192.0, 0.0, 0.0, 0.0, 0.0, 0.0, 0.0, 0.0, 0.0, 0.0, 1.657492216975104E9, 0.0, 2022-07-10 18:30:16.975
205.0, 25881.040201311138, 12141.69110556735, -32588.105808270673, -54734.750656455835, -2705.1422244479927, 6889.813469626126, -27542.06538701837, -7341.989259956988, 0.064, 0.86, 0.47200000000000003, 192.0, 0.0, 0.0, 0.0, 0.0, 0.0, 0.0, 0.0, 0.0, 0.0, 1.65749221698294E9, 0.0, 2022-07-10 18:30:16.982
206.0, 25237.08644355374, 11812.628723696318, -32660.234887627947, -54681.46409767438, -2809.03313267626, 7759.676308593311, -27636.836783508872, -7030.204776549909, 0.064, 0.86, 0.47200000000000003, 192.0, 0.0, 0.0, 0.0, 0.0, 0.0, 0.0, 0.0, 0.0, 0.0, 1.657492216982972E9, 0.0, 2022-07-10 18:30:16.982
207.0, 24340.0438833289, 11623.555317348877, -32757.82260391982, -54805.449224167976, -2892.2710290278233, 8820.445396953273, -27681.786141608496, -7018.067779310678, 0.064, 0.86, 0.47200000000000003, 192.0, 0.0, 0.0, 0.0, 0.0, 0.0, 0.0, 0.0, 0.0, 0.0, 1.657492216989636E9, 0.0, 2022-07-10 18:30:16.989
208.0, 24873.557671732626, 11923.269858750089, -32693.203710699527, -54857.171160837555, -2799.0419029047375, 8093.298446333224, -27609.70176574013, -7292.68131168858, 0.064, 0.86, 0.47200000000000003, 192.0, 0.0, 0.0, 0.0, 0.0, 0.0, 0.0, 0.0, 0.0, 0.0, 1.657492216989662E9, 0.0, 2022-07-10 18:30:16.989
209.0, 25839.01892173516, 12165.02632677869, -32581.02030527834, -54743.713705982416, -2688.803099251163, 6956.131095425021, -27505.408526111667, -7323.414960314627, 0.064, 0.86, 0.47200000000000003, 192.0, 0.0, 0.0, 0.0, 0.0, 0.0, 0.0, 0.0, 0.0, 0.0, 1.657492216999556E9, 0.0, 2022-07-10 18:30:16.999
210.0, 25456.312353171394, 11895.218419458679, -32625.45557325549, -54658.3523939076, -2765.8272106441514, 7545.0325065889965, -27543.02651202995, -6992.251514464798, 0.064, 0.86, 0.47200000000000003, 192.0, 0.0, 0.0, 0.0, 0.0, 0.0, 0.0, 0.0, 0.0, 0.0, 1.65749221699964E9, 0.0, 2022-07-10 18:30:16.999
211.0, 24430.434337906165, 11625.902250516683, -32738.756565899443, -54758.89054046757, -2885.185526035491, 8801.066434510522, -27658.920307030716, -6898.262429030232, 0.064, 0.86, 0.47200000000000003, 192.0, 0.0, 0.0, 0.0, 0.0, 0.0, 0.0, 0.0, 0.0, 0.0, 1.657492217007153E9, 0.0, 2022-07-10 18:30:17.007
212.0, 24703.103268516454, 11870.54209358002, -32704.96072828302, -54847.448151999495, -2824.612298561609, 8366.392060088165, -27659.724969831106, -7222.653296310103, 0.062, 0.866, 0.47600000000000003, 192.0, 1.0, 240.0, 27.0, 16.0, 14.0, 224.0, 0.0, 0.0, 0.0, 1.657492217007189E9, 0.0, 2022-07-10 18:30:17.007
213.0, 25746.81797585702, 12171.26246348172, -32587.5917181482, -54757.817656733714, -2704.4046168809673, 7108.5476408657605, -27561.667866905675, -7367.827876547322, 0.062, 0.866, 0.47600000000000003, 192.0, 0.0, 0.0, 0.0, 0.0, 0.0, 0.0, 0.0, 0.0, 0.0, 1.65749221701854E9, 0.0, 2022-07-10 18:30:17.018
214.0, 25645.51986998557, 11986.70410951425, -32588.6422501376, -54648.070591458156, -2735.7864660962186, 7350.371164127728, -27555.565840669376, -7075.668224772004, 0.062, 0.866, 0.47600000000000003, 192.0, 0.0, 0.0, 0.0, 0.0, 0.0, 0.0, 0.0, 0.0, 0.0, 1.65749221701856E9, 0.0, 2022-07-10 18:30:17.018
215.0, 24560.990877269614, 11658.535797421431, -32701.965594526006, -54716.31046728021, -2856.843514066162, 8682.736299364125, -27655.455786640145, -6886.17013527991, 0.062, 0.866, 0.47600000000000003, 192.0, 0.0, 0.0, 0.0, 0.0, 0.0, 0.0, 0.0, 0.0, 0.0, 1.657492217025138E9, 0.0, 2022-07-10 18:30:17.025
216.0, 24572.211452986176, 11825.950363391681, -32699.775123569387, -54823.75530287687, -2820.3654671151003, 8591.250609308554, -27630.4218328502, -7139.571862169727, 0.062, 0.866, 0.47600000000000003, 192.0, 0.0, 0.0, 0.0, 0.0, 0.0, 0.0, 0.0, 0.0, 0.0, 1.657492217031135E9, 0.0, 2022-07-10 18:30:17.031
217.0, 25629.918352355762, 12166.814466335114, -32584.842453580197, -54767.13833417158, -2691.6194190525316, 7298.693930947057, -27526.30740717738, -7345.520835580926, 0.062, 0.866, 0.47600000000000003, 192.0, 0.0, 0.0, 0.0, 0.0, 0.0, 0.0, 0.0, 0.0, 0.0, 1.657492217031167E9, 0.0, 2022-07-10 18:30:17.031
218.0, 25796.34944156998, 12051.010078312169, -32566.268153937835, -54650.77515253725, -2691.194735907881, 7178.396842288595, -27507.375479623734, -7122.6962951059695, 0.062, 0.866, 0.47600000000000003, 192.0, 0.0, 0.0, 0.0, 0.0, 0.0, 0.0, 0.0, 0.0, 0.0, 1.657492217037287E9, 0.0, 2022-07-10 18:30:17.037
219.0, 24726.684358916806, 11680.149934309715, -32681.200823927025, -54693.82461235817, -2827.22745266288, 8500.72604426456, -27613.27804485298, -6880.023405554701, 0.062, 0.866, 0.47600000000000003, 192.0, 0.0, 0.0, 0.0, 0.0, 0.0, 0.0, 0.0, 0.0, 0.0, 1.657492217037306E9, 0.0, 2022-07-10 18:30:17.037
220.0, 24451.422625949697, 11758.537502114476, -32712.09093476426, -54821.25190749788, -2835.8552260226284, 8741.655497748316, -27650.13607145978, -7092.49908834685, 0.062, 0.866, 0.47600000000000003, 192.0, 0.0, 0.0, 0.0, 0.0, 0.0, 0.0, 0.0, 0.0, 0.0, 1.657492217043792E9, 0.0, 2022-07-10 18:30:17.043
221.0, 25448.735111801045, 12113.997294187224, -32611.776305648844, -54797.5814101197, -2718.2403466988026, 7500.574886867391, -27562.807805872897, -7352.6733938066245, 0.062, 0.866, 0.47600000000000003, 192.0, 0.0, 0.0, 0.0, 0.0, 0.0, 0.0, 0.0, 0.0, 0.0, 1.657492217043838E9, 0.0, 2022-07-10 18:30:17.043
222.0, 25888.41627698139, 12109.035206918146, -32562.602467847166, -54670.221170213365, -2686.567924805632, 7049.516683759294, -27533.795241569907, -7198.6475227651035, 0.054, 0.866, 0.47400000000000003, 192.0, 1.0, 176.0, 27.0, 16.0, 14.0, 208.0, 0.0, 0.0, 0.0, 1.65749221705E9, 0.0, 2022-07-10 18:30:17.050
223.0, 24918.9317129769, 11738.040952448959, -32661.196012639528, -54670.10941149109, -2807.1779378864694, 8278.840277056728, -27628.61134154932, -6902.375150010008, 0.054, 0.866, 0.47400000000000003, 192.0, 0.0, 0.0, 0.0, 0.0, 0.0, 0.0, 0.0, 0.0, 0.0, 1.657492217050068E9, 0.0, 2022-07-10 18:30:17.050
224.0, 24387.92131995217, 11701.942885153638, -32728.698280894554, -54810.07603527022, -2858.6093018781307, 8864.366574807951, -27706.887150631806, -7048.197930836432, 0.054, 0.866, 0.47400000000000003, 192.0, 0.0, 0.0, 0.0, 0.0, 0.0, 0.0, 0.0, 0.0, 0.0, 1.657492217058252E9, 0.0, 2022-07-10 18:30:17.058
225.0, 25257.404179263616, 12066.656299430884, -32624.6509104551, -54813.87583182762, -2728.1421694925034, 7747.785180543087, -27586.679468951163, -7330.947498196066, 0.054, 0.866, 0.47400000000000003, 192.0, 0.0, 0.0, 0.0, 0.0, 0.0, 0.0, 0.0, 0.0, 0.0, 1.657492217058311E9, 0.0, 2022-07-10 18:30:17.058
226.0, 25939.959399695326, 12153.157550472923, -32549.124365940617, -54685.97915005436, -2661.064584382127, 7012.971581574868, -27479.279336843414, -7228.710619057491, 0.054, 0.866, 0.47400000000000003, 192.0, 0.0, 0.0, 0.0, 0.0, 0.0, 0.0, 0.0, 0.0, 0.0, 1.657492217065045E9, 0.0, 2022-07-10 18:30:17.065
227.0, 25149.26643958884, 11792.199229264168, -32637.704329217, -54662.97920500985, -2776.5560479826986, 8062.2295215403465, -27559.343285482322, -6911.002923369757, 0.054, 0.866, 0.47400000000000003, 192.0, 0.0, 0.0, 0.0, 0.0, 0.0, 0.0, 0.0, 0.0, 0.0, 1.6574922170651E9, 0.0, 2022-07-10 18:30:17.065
228.0, 24388.927148452658, 11674.78551564044, -32727.513638438424, -54795.97208451892, -2854.250711709346, 8933.947555297322, -27646.51508885802, -6965.742345540803, 0.054, 0.866, 0.47400000000000003, 192.0, 0.0, 0.0, 0.0, 0.0, 0.0, 0.0, 0.0, 0.0, 0.0, 1.65749221707277E9, 0.0, 2022-07-10 18:30:17.072
229.0, 25061.7146565574, 12012.118042959935, -32656.502146303912, -54842.26254728586, -2751.030355814738, 8003.690302811898, -27586.210082317604, -7289.485012231471, 0.054, 0.866, 0.47400000000000003, 192.0, 0.0, 0.0, 0.0, 0.0, 0.0, 0.0, 0.0, 0.0, 0.0, 1.657492217072827E9, 0.0, 2022-07-10 18:30:17.072
230.0, 25908.331681291067, 12177.632710651484, -32560.389645146093, -54719.506766737315, -2659.835238437085, 7000.298142468709, -27503.508627832965, -7287.473355230493, 0.054, 0.866, 0.47400000000000003, 192.0, 0.0, 0.0, 0.0, 0.0, 0.0, 0.0, 0.0, 0.0, 0.0, 1.657492217079982E9, 0.0, 2022-07-10 18:30:17.079
231.0, 25339.546840136867, 11854.91822420576, -32620.538189475323, -54658.93353926344, -2753.936082593928, 7795.1485270438825, -27583.41611426069, -6970.100935709588, 0.054, 0.866, 0.47400000000000003, 192.0, 0.0, 0.0, 0.0, 0.0, 0.0, 0.0, 0.0, 0.0, 0.0, 1.657492217087906E9, 0.0, 2022-07-10 18:30:17.087
232.0, 24413.424660375676, 11649.371582194755, -32720.18226625708, -54770.60285456215, -2851.2332262078794, 8909.47239511876, -27663.61417336633, -6926.380923555008, 0.052000000000000005, 0.87, 0.47200000000000003, 192.0, 1.0, 160.0, 27.0, 48.0, 14.0, 192.0, 0.0, 0.0, 0.0, 1.657492217087936E9, 0.0, 2022-07-10 18:30:17.087
233.0, 24870.473130997794, 11932.881108865871, -32684.151254195127, -54847.62696595514, -2785.6308562315535, 8253.716916288962, -27644.391673134767, -7256.985575793455, 0.052000000000000005, 0.87, 0.47200000000000003, 192.0, 0.0, 0.0, 0.0, 0.0, 0.0, 0.0, 0.0, 0.0, 0.0, 1.657492217095234E9, 0.0, 2022-07-10 18:30:17.095
234.0, 25837.230782178736, 12179.59966416355, -32584.50717741337, -54764.813752748225, -2680.331788102602, 7069.275625857786, -27522.93229376463, -7349.342983882783, 0.052000000000000005, 0.87, 0.47200000000000003, 192.0, 0.0, 0.0, 0.0, 0.0, 0.0, 0.0, 0.0, 0.0, 0.0, 1.6574922170953E9, 0.0, 2022-07-10 18:30:17.095
235.0, 25525.4239470272, 11917.614867402895, -32607.998860835894, -54666.3543184226, -2728.6339078705205, 7551.849788647865, -27499.30649987537, -6998.085319767633, 0.052000000000000005, 0.87, 0.47200000000000003, 192.0, 0.0, 0.0, 0.0, 0.0, 0.0, 0.0, 0.0, 0.0, 0.0, 1.657492217102172E9, 0.0, 2022-07-10 18:30:17.102
236.0, 24506.586731265394, 11635.379390165734, -32717.030670288885, -54754.3754880876, -2844.7512203158403, 8832.381228492408, -27602.12452436978, -6848.485094128263, 0.052000000000000005, 0.87, 0.47200000000000003, 192.0, 0.0, 0.0, 0.0, 0.0, 0.0, 0.0, 0.0, 0.0, 0.0, 1.657492217102193E9, 0.0, 2022-07-10 18:30:17.102
237.0, 24703.952634805755, 11869.692727290718, -32692.913138021606, -54847.85048339969, -2795.4432720474333, 8470.171209594157, -27594.83785567735, -7150.4571617194615, 0.052000000000000005, 0.87, 0.47200000000000003, 192.0, 0.0, 0.0, 0.0, 0.0, 0.0, 0.0, 0.0, 0.0, 0.0, 1.657492217110213E9, 0.0, 2022-07-10 18:30:17.110
238.0, 25723.974493023696, 12188.0262718232, -32572.481938896413, -54763.45029633645, -2668.7312327302975, 7179.156801600076, -27489.20351138157, -7307.321704306806, 0.052000000000000005, 0.87, 0.47200000000000003, 192.0, 0.0, 0.0, 0.0, 0.0, 0.0, 0.0, 0.0, 0.0, 0.0, 1.657492217110237E9, 0.0, 2022-07-10 18:30:17.110
239.0, 25689.485751329157, 12008.005321980158, -32576.25938370936, -54649.47875135884, -2702.1470906909813, 7323.772588225912, -27500.848770242785, -7037.20087256442, 0.052000000000000005, 0.87, 0.47200000000000003, 192.0, 0.0, 0.0, 0.0, 0.0, 0.0, 0.0, 0.0, 0.0, 0.0, 1.657492217118159E9, 0.0, 2022-07-10 18:30:17.118
240.0, 24642.82061372049, 11667.230626014547, -32697.025859001384, -54716.377522513576, -2832.346002143145, 8677.975377795146, -27614.105059397825, -6841.0643149691, 0.052000000000000005, 0.87, 0.47200000000000003, 192.0, 0.0, 0.0, 0.0, 0.0, 0.0, 0.0, 0.0, 0.0, 0.0, 1.657492217118187E9, 0.0, 2022-07-10 18:30:17.118
241.0, 24577.575871655452, 11808.739520161096, -32706.480646905977, -54835.55702394927, -2811.9835629443605, 8672.320386447953, -27621.65994902372, -7098.26583841632, 0.052000000000000005, 0.87, 0.47200000000000003, 192.0, 0.0, 0.0, 0.0, 0.0, 0.0, 0.0, 0.0, 0.0, 0.0, 1.657492217124804E9, 0.0, 2022-07-10 18:30:17.124
242.0, 25575.804779029462, 12145.557957358118, -32602.299165999793, -54796.01678800784, -2694.5027940872665, 7356.719059553035, -27525.279226932435, -7333.0709139193195, 0.052000000000000005, 0.862, 0.468, 192.0, 1.0, 160.0, 26.0, 240.0, 14.0, 160.0, 0.0, 0.0, 0.0, 1.657492217124831E9, 0.0, 2022-07-10 18:30:17.124
243.0, 25808.329976598023, 12072.758325667182, -32574.962982530953, -54671.74108883633, -2694.9274772319172, 7143.170493027031, -27510.77294478094, -7129.468873675928, 0.052000000000000005, 0.862, 0.468, 192.0, 0.0, 0.0, 0.0, 0.0, 0.0, 0.0, 0.0, 0.0, 0.0, 1.657492217132757E9, 0.0, 2022-07-10 18:30:17.132
244.0, 24806.144810455422, 11703.261638076501, -32685.559414095813, -54700.284266505754, -2826.4227898624886, 8476.362642808275, -27639.13901318777, -6876.9835683087795, 0.052000000000000005, 0.862, 0.468, 192.0, 0.0, 0.0, 0.0, 0.0, 0.0, 0.0, 0.0, 0.0, 0.0, 1.657492217132777E9, 0.0, 2022-07-10 18:30:17.132
245.0, 24480.88222514179, 11738.08565593787, -32727.893618094164, -54825.40933196656, -2849.8250663071954, 8831.420103480828, -27706.037784342505, -7079.959759707423, 0.052000000000000005, 0.862, 0.468, 192.0, 0.0, 0.0, 0.0, 0.0, 0.0, 0.0, 0.0, 0.0, 0.0, 1.657492217140033E9, 0.0, 2022-07-10 18:30:17.140
246.0, 25387.424276760135, 12090.371500297964, -32626.573160478256, -54821.38601796461, -2728.0080590257717, 7579.565951772446, -27611.355794829822, -7371.091231237797, 0.052000000000000005, 0.862, 0.468, 192.0, 0.0, 0.0, 0.0, 0.0, 0.0, 0.0, 0.0, 0.0, 0.0, 1.657492217147813E9, 0.0, 2022-07-10 18:30:17.147
247.0, 25866.243346481722, 12109.146965640422, -32566.089339982194, -54683.788679097735, -2676.9566746898504, 7039.145474332032, -27457.888717399685, -7203.251982122896, 0.052000000000000005, 0.862, 0.468, 192.0, 0.0, 0.0, 0.0, 0.0, 0.0, 0.0, 0.0, 0.0, 0.0, 1.65749221714807E9, 0.0, 2022-07-10 18:30:17.148
248.0, 25004.98592912983, 11744.99234497456, -32666.202803397515, -54674.490353404326, -2798.639571504542, 8264.4010501386, -27551.341360967323, -6883.644388156461, 0.052000000000000005, 0.862, 0.468, 192.0, 0.0, 0.0, 0.0, 0.0, 0.0, 0.0, 0.0, 0.0, 0.0, 1.65749221715464E9, 0.0, 2022-07-10 18:30:17.154
249.0, 24438.413910676707, 11690.69995769262, -32732.788650129874, -54813.92053531654, -2847.187560461469, 8933.075837263565, -27631.360606117323, -6992.720901098359, 0.052000000000000005, 0.862, 0.468, 192.0, 0.0, 0.0, 0.0, 0.0, 0.0, 0.0, 0.0, 0.0, 0.0, 1.657492217154682E9, 0.0, 2022-07-10 18:30:17.154
250.0, 25195.13221921113, 12042.963450308258, -32642.621712997166, -54834.90882336007, -2733.8865678175175, 7800.714111413255, -27565.177090785157, -7319.950439924055, 0.052000000000000005, 0.862, 0.468, 192.0, 0.0, 0.0, 0.0, 0.0, 0.0, 0.0, 0.0, 0.0, 0.0, 1.657492217162853E9, 0.0, 2022-07-10 18:30:17.162
251.0, 25868.858500582995, 12164.288719211665, -32562.378950402614, -54706.11807180859, -2666.607817007043, 6942.4294760739185, -27499.261796386458, -7261.143000262142, 0.052000000000000005, 0.862, 0.468, 192.0, 0.0, 0.0, 0.0, 0.0, 0.0, 0.0, 0.0, 0.0, 0.0, 1.657492217162915E9, 0.0, 2022-07-10 18:30:17.162
252.0, 25187.37616388514, 11817.121424331835, -32645.32627407626, -54659.38057415254, -2787.284885321246, 7972.621378019021, -27618.597760033343, -6948.352688354575, 0.056, 0.854, 0.47200000000000003, 192.0, 1.0, 192.0, 26.0, 176.0, 14.0, 192.0, 0.0, 0.0, 0.0, 1.657492217170392E9, 0.0, 2022-07-10 18:30:17.170
253.0, 24439.196221732644, 11657.194692754114, -32736.61079843173, -54789.57948560471, -2871.28274098429, 8953.930014840367, -27693.632566169807, -6984.987197516823, 0.056, 0.854, 0.47200000000000003, 192.0, 0.0, 0.0, 0.0, 0.0, 0.0, 0.0, 0.0, 0.0, 0.0, 1.657492217170419E9, 0.0, 2022-07-10 18:30:17.170
254.0, 25020.22981884835, 11976.645824509362, -32657.552678293312, -54843.55894846427, -2753.6231581715538, 8073.852428657106, -27560.639686660732, -7266.306253231318, 0.056, 0.854, 0.47200000000000003, 192.0, 0.0, 0.0, 0.0, 0.0, 0.0, 0.0, 0.0, 0.0, 0.0, 1.657492217177769E9, 0.0, 2022-07-10 18:30:17.177
255.0, 25839.376549646444, 12174.123486772, -32552.275961908814, -54720.37848477108, -2647.2065028198367, 6976.493534623806, -27449.10448182875, -7279.359671993217, 0.056, 0.854, 0.47200000000000003, 192.0, 0.0, 0.0, 0.0, 0.0, 0.0, 0.0, 0.0, 0.0, 0.0, 1.657492217177792E9, 0.0, 2022-07-10 18:30:17.177
0.0, 25379.958794112063, 11877.806410527994, -32607.75299164689, -54638.30287913119, -2745.822399356651, 7725.500491321146, -27517.657282073174, -6943.055324918667, 0.056, 0.854, 0.47200000000000003, 192.0, 0.0, 0.0, 0.0, 0.0, 0.0, 0.0, 0.0, 0.0, 0.0, 1.657492217186473E9, 0.0, 2022-07-10 18:30:17.186
1.0, 24497.981309650102, 11639.358000678778, -32724.6749668926, -54759.985775945876, -2867.28177872679, 8934.841625075534, -27641.865926011316, -6906.621981456517, 0.056, 0.854, 0.47200000000000003, 192.0, 0.0, 0.0, 0.0, 0.0, 0.0, 0.0, 0.0, 0.0, 0.0, 1.657492217186494E9, 0.0, 2022-07-10 18:30:17.186
2.0, 24842.2652294952, 11910.484660921653, -32680.6643820601, -54853.61723346916, -2785.899077165017, 8299.180364511058, -27599.531722012965, -7261.970014806988, 0.056, 0.854, 0.47200000000000003, 192.0, 0.0, 0.0, 0.0, 0.0, 0.0, 0.0, 0.0, 0.0, 0.0, 1.657492217192701E9, 0.0, 2022-07-10 18:30:17.192
3.0, 25743.822842100006, 12181.879542097991, -32564.614124848144, -54754.464895065415, -2663.679738483398, 7011.295200740719, -27489.00234568147, -7342.860977990745, 0.056, 0.854, 0.47200000000000003, 192.0, 0.0, 0.0, 0.0, 0.0, 0.0, 0.0, 0.0, 0.0, 0.0, 1.657492217192723E9, 0.0, 2022-07-10 18:30:17.192
4.0, 25532.68826397518, 11952.014202119613, -32591.570328661244, -54646.64007981302, -2737.0828672746266, 7428.781083676945, -27555.521137180465, -7022.448721223917, 0.056, 0.854, 0.47200000000000003, 192.0, 0.0, 0.0, 0.0, 0.0, 0.0, 0.0, 0.0, 0.0, 0.0, 1.657492217199572E9, 0.0, 2022-07-10 18:30:17.199
5.0, 24583.767304869572, 11650.466817673067, -32711.57684464179, -54729.74386569785, -2863.4819821693877, 8809.627152636904, -27655.969876762614, -6872.915550817914, 0.056, 0.854, 0.47200000000000003, 192.0, 0.0, 0.0, 0.0, 0.0, 0.0, 0.0, 0.0, 0.0, 0.0, 1.657492217207633E9, 0.0, 2022-07-10 18:30:17.207
6.0, 24694.90017830136, 11846.782189224028, -32692.734324065965, -54837.25575652788, -2812.7435222558406, 8542.367344184799, -27610.640539007254, -7170.104345095676, 0.052000000000000005, 0.854, 0.47000000000000003, 192.0, 1.0, 160.0, 26.0, 176.0, 14.0, 176.0, 0.0, 0.0, 0.0, 1.657492217207805E9, 0.0, 2022-07-10 18:30:17.207
7.0, 25627.861991865873, 12156.68912609686, -32581.556747145267, -54773.86620925262, -2693.094634186582, 7185.169420858553, -27516.472639617044, -7352.204007173063, 0.052000000000000005, 0.854, 0.47000000000000003, 192.0, 0.0, 0.0, 0.0, 0.0, 0.0, 0.0, 0.0, 0.0, 0.0, 1.657492217215635E9, 0.0, 2022-07-10 18:30:17.215
8.0, 25679.27100411308, 12022.623362853928, -32579.880366311118, -54646.86359725757, -2724.700000846386, 7243.328659931262, -27542.780642840942, -7092.029701713289, 0.052000000000000005, 0.854, 0.47000000000000003, 192.0, 0.0, 0.0, 0.0, 0.0, 0.0, 0.0, 0.0, 0.0, 0.0, 1.657492217215693E9, 0.0, 2022-07-10 18:30:17.215
9.0, 24721.31994024753, 11689.3588530253, -32690.454446131524, -54691.63414140155, -2846.3605459166224, 8659.915168275258, -27631.56177181742, -6862.298472201643, 0.052000000000000005, 0.854, 0.47000000000000003, 192.0, 0.0, 0.0, 0.0, 0.0, 0.0, 0.0, 0.0, 0.0, 0.0, 1.657492217222296E9, 0.0, 2022-07-10 18:30:17.222
10.0, 24568.18813898422, 11790.880476341305, -32709.207559729526, -54824.33644823271, -2835.341135900156, 8729.049113875522, -27668.978592035604, -7127.6807341195035, 0.052000000000000005, 0.854, 0.47000000000000003, 192.0, 0.0, 0.0, 0.0, 0.0, 0.0, 0.0, 0.0, 0.0, 0.0, 1.657492217222364E9, 0.0, 2022-07-10 18:30:17.222
11.0, 25473.322030701882, 12131.811634518104, -32596.68887814151, -54785.3326541582, -2706.706846559864, 7376.589760373803, -27564.730055896052, -7378.690824352601, 0.052000000000000005, 0.854, 0.47000000000000003, 192.0, 0.0, 0.0, 0.0, 0.0, 0.0, 0.0, 0.0, 0.0, 0.0, 1.657492217230124E9, 0.0, 2022-07-10 18:30:17.230
12.0, 25770.734342424195, 12076.379308268943, -32566.469319637934, -54651.78098103774, -2708.383227394012, 7082.552562064238, -27544.07704401935, -7184.498868524894, 0.052000000000000005, 0.854, 0.47000000000000003, 192.0, 0.0, 0.0, 0.0, 0.0, 0.0, 0.0, 0.0, 0.0, 0.0, 1.657492217230145E9, 0.0, 2022-07-10 18:30:17.230
13.0, 24868.126197829988, 11706.994379400538, -32681.536100093857, -54674.982091782345, -2844.438295893466, 8442.320936002843, -27628.81250724942, -6913.439263515385, 0.052000000000000005, 0.854, 0.47000000000000003, 192.0, 0.0, 0.0, 0.0, 0.0, 0.0, 0.0, 0.0, 0.0, 0.0, 1.657492217238092E9, 0.0, 2022-07-10 18:30:17.238
14.0, 24495.969652649124, 11727.982667444072, -32725.636091904176, -54819.46376794145, -2847.478133139388, 8890.875743731945, -27593.787323687953, -7064.849980455635, 0.052000000000000005, 0.854, 0.47000000000000003, 192.0, 0.0, 0.0, 0.0, 0.0, 0.0, 0.0, 0.0, 0.0, 0.0, 1.657492217238122E9, 0.0, 2022-07-10 18:30:17.238
15.0, 25320.883133516687, 12072.266587289167, -32620.717003430964, -54820.35783771966, -2712.8535762850734, 7628.449216896202, -27487.325964847325, -7315.860070688734, 0.052000000000000005, 0.854, 0.47200000000000003, 192.0, 1.0, 160.0, 26.0, 176.0, 14.0, 192.0, 0.0, 0.0, 0.0, 1.657492217244658E9, 0.0, 2022-07-10 18:30:17.244
16.0, 25829.765299530663, 12116.321875610576, -32549.258476407347, -54672.456344658895, -2665.5349332731885, 6983.981369016335, -27429.546705430355, -7175.08878410921, 0.052000000000000005, 0.854, 0.47200000000000003, 192.0, 0.0, 0.0, 0.0, 0.0, 0.0, 0.0, 0.0, 0.0, 0.0, 1.657492217244682E9, 0.0, 2022-07-10 18:30:17.244
17.0, 25038.245324879328, 11767.634662107786, -32647.315579332782, -54647.69061180242, -2796.4714522923773, 8187.645159679075, -27539.427881172644, -6856.487018643263, 0.052000000000000005, 0.854, 0.47200000000000003, 192.0, 0.0, 0.0, 0.0, 0.0, 0.0, 0.0, 0.0, 0.0, 0.0, 1.657492217254737E9, 0.0, 2022-07-10 18:30:17.254
18.0, 24443.577163645885, 11679.725251165064, -32732.207504774036, -54792.19463970597, -2865.5606944037313, 8956.612224175004, -27634.84747825235, -6966.658767063471, 0.052000000000000005, 0.854, 0.47200000000000003, 192.0, 0.0, 0.0, 0.0, 0.0, 0.0, 0.0, 0.0, 0.0, 0.0, 1.657492217254847E9, 0.0, 2022-07-10 18:30:17.254
19.0, 25141.622142985125, 12017.661275584851, -32647.092061888226, -54829.56675643525, -2755.0760215611485, 7872.709080303798, -27556.25874474749, -7308.7075124630355, 0.052000000000000005, 0.854, 0.47200000000000003, 192.0, 0.0, 0.0, 0.0, 0.0, 0.0, 0.0, 0.0, 0.0, 0.0, 1.657492217261099E9, 0.0, 2022-07-10 18:30:17.261
20.0, 25846.77497706115, 12154.677469095883, -32556.746310799877, -54697.982036826856, -2674.4085758219453, 6947.615080787549, -27478.00528740946, -7275.135192291164, 0.052000000000000005, 0.854, 0.47200000000000003, 192.0, 0.0, 0.0, 0.0, 0.0, 0.0, 0.0, 0.0, 0.0, 0.0, 1.657492217261137E9, 0.0, 2022-07-10 18:30:17.261
21.0, 25222.401347446605, 11823.491671501599, -32624.628558710643, -54637.34175411961, -2777.114841594081, 7897.675978860377, -27553.017741801472, -6929.130188123011, 0.052000000000000005, 0.854, 0.47200000000000003, 192.0, 0.0, 0.0, 0.0, 0.0, 0.0, 0.0, 0.0, 0.0, 0.0, 1.657492217267826E9, 0.0, 2022-07-10 18:30:17.267
22.0, 24433.563582129907, 11649.706858361586, -32727.737155882976, -54769.79819176176, -2871.6850723844855, 8930.639497117936, -27653.399426150256, -6935.232214359309, 0.052000000000000005, 0.854, 0.47200000000000003, 192.0, 0.0, 0.0, 0.0, 0.0, 0.0, 0.0, 0.0, 0.0, 0.0, 1.657492217274473E9, 0.0, 2022-07-10 18:30:17.274
23.0, 24959.768350096747, 11948.952013129237, -32675.14350117964, -54836.696962916496, -2791.2187923453803, 8126.736656038363, -27613.1662861307, -7271.983596322965, 0.052000000000000005, 0.854, 0.47200000000000003, 192.0, 0.0, 0.0, 0.0, 0.0, 0.0, 0.0, 0.0, 0.0, 0.0, 1.657492217274552E9, 0.0, 2022-07-10 18:30:17.274
24.0, 25821.24928489319, 12166.814466335114, -32574.560651130756, -54731.330839554175, -2692.9605237198502, 7009.931744328946, -27523.759308309476, -7326.544204538371, 0.052000000000000005, 0.854, 0.47200000000000003, 192.0, 0.0, 0.0, 0.0, 0.0, 0.0, 0.0, 0.0, 0.0, 0.0, 1.657492217282286E9, 0.0, 2022-07-10 18:30:17.282
25.0, 25420.482506809534, 11895.397233414322, -32611.17280854855, -54636.470036085855, -2754.874855861051, 7661.350984734415, -27557.08575929234, -6981.589732359616, 0.05, 0.858, 0.47200000000000003, 192.0, 1.0, 144.0, 26.0, 208.0, 14.0, 192.0, 0.0, 0.0, 0.0, 1.65749221728231E9, 0.0, 2022-07-10 18:30:17.282
26.0, 24488.861797912337, 11639.49211114551, -32724.652615148145, -54747.267633350806, -2871.28274098429, 8875.833019713524, -27681.339106719388, -6912.3216762926195, 0.05, 0.858, 0.47200000000000003, 192.0, 0.0, 0.0, 0.0, 0.0, 0.0, 0.0, 0.0, 0.0, 0.0, 1.657492217290422E9, 0.0, 2022-07-10 18:30:17.290
27.0, 24783.23427238873, 11889.764593811584, -32690.18622519806, -54833.94769834849, -2804.7192459963853, 8364.380403087187, -27621.481135068076, -7229.783502791346, 0.05, 0.858, 0.47200000000000003, 192.0, 0.0, 0.0, 0.0, 0.0, 0.0, 0.0, 0.0, 0.0, 0.0, 1.657492217290444E9, 0.0, 2022-07-10 18:30:17.290
28.0, 25736.93850480777, 12178.638539151973, -32577.466377909946, -54741.79145595926, -2677.359006090046, 7129.625335887115, -27479.72637173252, -7335.954288954054, 0.05, 0.858, 0.47200000000000003, 192.0, 0.0, 0.0, 0.0, 0.0, 0.0, 0.0, 0.0, 0.0, 0.0, 1.657492217298728E9, 0.0, 2022-07-10 18:30:17.298
29.0, 25587.025354746027, 11968.532141272086, -32591.88325308362, -54639.57692856514, -2723.358896179068, 7445.120208873775, -27485.873101457728, -7035.748009174826, 0.05, 0.858, 0.47200000000000003, 192.0, 0.0, 0.0, 0.0, 0.0, 0.0, 0.0, 0.0, 0.0, 0.0, 1.657492217298814E9, 0.0, 2022-07-10 18:30:17.298
30.0, 24581.733296124137, 11646.264689715468, -32707.955862040028, -54717.204537058424, -2854.4071739205333, 8748.718648996193, -27621.548190301444, -6884.002016067746, 0.05, 0.858, 0.47200000000000003, 192.0, 0.0, 0.0, 0.0, 0.0, 0.0, 0.0, 0.0, 0.0, 0.0, 1.657492217306442E9, 0.0, 2022-07-10 18:30:17.306
31.0, 24626.34737805693, 11820.518889489042, -32709.676946363088, -54833.21009078147, -2826.3333828846676, 8556.761867614016, -27654.13703371728, -7182.196638845997, 0.05, 0.858, 0.47200000000000003, 192.0, 0.0, 0.0, 0.0, 0.0, 0.0, 0.0, 0.0, 0.0, 0.0, 1.657492217306464E9, 0.0, 2022-07-10 18:30:17.306
32.0, 25612.036956791515, 12154.185730717867, -32594.11842752915, -54767.27244463831, -2706.326866904124, 7274.352881235228, -27559.16447152668, -7382.602379632281, 0.05, 0.858, 0.47200000000000003, 192.0, 0.0, 0.0, 0.0, 0.0, 0.0, 0.0, 0.0, 0.0, 0.0, 1.657492217313907E9, 0.0, 2022-07-10 18:30:17.313
33.0, 25729.405966926333, 12029.775921079627, -32580.573270389235, -54649.5011031033, -2728.902128803984, 7239.372401162673, -27555.40937845819, -7173.859438164168, 0.05, 0.858, 0.47200000000000003, 192.0, 0.0, 0.0, 0.0, 0.0, 0.0, 0.0, 0.0, 0.0, 0.0, 1.657492217313933E9, 0.0, 2022-07-10 18:30:17.313
34.0, 24733.45693748676, 11666.090687047326, -32694.164835711104, -54695.880972848056, -2850.339156429667, 8577.392527746264, -27587.439428262645, -6913.908650148946, 0.05, 0.858, 0.47200000000000003, 192.0, 0.0, 0.0, 0.0, 0.0, 0.0, 0.0, 0.0, 0.0, 0.0, 1.657492217322291E9, 0.0, 2022-07-10 18:30:17.322
35.0, 24522.344711106387, 11760.638566093276, -32708.313489951313, -54820.4919481864, -2833.508292854821, 8732.379523799364, -27585.003088117017, -7089.101623189643, 0.052000000000000005, 0.866, 0.468, 192.0, 1.0, 160.0, 27.0, 16.0, 14.0, 160.0, 0.0, 0.0, 0.0, 1.657492217322322E9, 0.0, 2022-07-10 18:30:17.322
36.0, 25465.99065852054, 12123.385026858454, -32593.626689151133, -54775.90021799806, -2700.6718755569314, 7479.8771715017765, -27497.987746952505, -7324.107864392742, 0.052000000000000005, 0.866, 0.468, 192.0, 0.0, 0.0, 0.0, 0.0, 0.0, 0.0, 0.0, 0.0, 0.0, 1.657492217329204E9, 0.0, 2022-07-10 18:30:17.329
37.0, 25832.58161933203, 12100.318026580577, -32553.706473553953, -54646.41656236846, -2681.605837536554, 7118.203594470453, -27472.707923973554, -7153.318185009741, 0.052000000000000005, 0.866, 0.468, 192.0, 0.0, 0.0, 0.0, 0.0, 0.0, 0.0, 0.0, 0.0, 0.0, 1.657492217334947E9, 0.0, 2022-07-10 18:30:17.334
38.0, 24900.759744734736, 11722.12651039678, -32663.297076618324, -54661.146361964515, -2824.5005398393323, 8360.602958274241, -27592.46857076509, -6875.955388063835, 0.052000000000000005, 0.866, 0.468, 192.0, 0.0, 0.0, 0.0, 0.0, 0.0, 0.0, 0.0, 0.0, 0.0, 1.657492217334967E9, 0.0, 2022-07-10 18:30:17.334
39.0, 24436.156384486723, 11717.477347550077, -32715.398992943647, -54798.721349086925, -2856.597644877153, 8841.254871041165, -27645.84453652436, -7045.225148823875, 0.052000000000000005, 0.866, 0.468, 192.0, 0.0, 0.0, 0.0, 0.0, 0.0, 0.0, 0.0, 0.0, 0.0, 1.657492217342898E9, 0.0, 2022-07-10 18:30:17.342
40.0, 25279.085371385263, 12080.939064137825, -32618.83945689672, -54793.08870948419, -2736.5687771521543, 7704.6686654888, -27555.610544158288, -7330.16518714013, 0.052000000000000005, 0.866, 0.468, 192.0, 0.0, 0.0, 0.0, 0.0, 0.0, 0.0, 0.0, 0.0, 0.0, 1.657492217342947E9, 0.0, 2022-07-10 18:30:17.342
41.0, 25880.16848327738, 12142.45106487883, -32554.10880495415, -54668.4553824014, -2687.931381217406, 7045.493369757339, -27501.25110164298, -7229.7611510468905, 0.052000000000000005, 0.866, 0.468, 192.0, 0.0, 0.0, 0.0, 0.0, 0.0, 0.0, 0.0, 0.0, 0.0, 1.65749221734989E9, 0.0, 2022-07-10 18:30:17.349
42.0, 25091.241310982863, 11783.258531482046, -32640.8559251852, -54648.204701924886, -2799.198365115925, 8106.709493006408, -27596.93891965615, -6923.810472942648, 0.052000000000000005, 0.866, 0.468, 192.0, 0.0, 0.0, 0.0, 0.0, 0.0, 0.0, 0.0, 0.0, 0.0, 1.657492217349911E9, 0.0, 2022-07-10 18:30:17.349
43.0, 24402.49465733703, 11680.373451754267, -32719.019975545405, -54775.83316276469, -2865.1807147479913, 8880.593941282505, -27669.96206879164, -6998.286485467731, 0.052000000000000005, 0.866, 0.468, 192.0, 0.0, 0.0, 0.0, 0.0, 0.0, 0.0, 0.0, 0.0, 0.0, 1.65749221735748E9, 0.0, 2022-07-10 18:30:17.357
44.0, 25084.044049268254, 12006.999493479669, -32648.723739233465, -54807.90791605806, -2773.2703415477686, 7943.564110227122, -27592.64738472073, -7306.427634528593, 0.052000000000000005, 0.866, 0.468, 192.0, 0.0, 0.0, 0.0, 0.0, 0.0, 0.0, 0.0, 0.0, 0.0, 1.657492217357531E9, 0.0, 2022-07-10 18:30:17.357
45.0, 25875.251099497214, 12160.243053465254, -32562.557764358255, -54688.549600666716, -2699.4648813563444, 7046.789770935747, -27499.574720808832, -7284.835849384767, 0.052000000000000005, 0.866, 0.462, 192.0, 1.0, 160.0, 27.0, 16.0, 14.0, 112.0, 0.0, 0.0, 0.0, 1.657492217365307E9, 0.0, 2022-07-10 18:30:17.365
46.0, 25289.166008134605, 11843.809407211473, -32619.733526674932, -54631.083265672125, -2783.4627370193884, 7872.306748903603, -27554.82823310235, -6960.422630360441, 0.052000000000000005, 0.866, 0.462, 192.0, 0.0, 0.0, 0.0, 0.0, 0.0, 0.0, 0.0, 0.0, 0.0, 1.657492217365359E9, 0.0, 2022-07-10 18:30:17.365
47.0, 24415.68218656566, 11655.16068400868, -32712.068583019805, -54747.267633350806, -2867.304130471245, 8866.42293529784, -27644.168155690215, -6952.554816312172, 0.052000000000000005, 0.866, 0.462, 192.0, 0.0, 0.0, 0.0, 0.0, 0.0, 0.0, 0.0, 0.0, 0.0, 1.657492217379339E9, 0.0, 2022-07-10 18:30:17.379
48.0, 24893.182503364387, 11943.65464969333, -32664.50407081891, -54805.24805846788, -2793.118690624081, 8163.5946826451645, -27601.297509824934, -7269.122573032686, 0.052000000000000005, 0.866, 0.462, 192.0, 0.0, 0.0, 0.0, 0.0, 0.0, 0.0, 0.0, 0.0, 0.0, 1.65749221737936E9, 0.0, 2022-07-10 18:30:17.379
49.0, 25811.906255710874, 12172.581216404584, -32566.82694754922, -54705.961609597405, -2692.4017301084677, 7076.070556172199, -27514.863314016264, -7334.054390675354, 0.052000000000000005, 0.866, 0.462, 192.0, 0.0, 0.0, 0.0, 0.0, 0.0, 0.0, 0.0, 0.0, 0.0, 1.657492217388939E9, 0.0, 2022-07-10 18:30:17.388
50.0, 25457.85462353881, 11912.093986522435, -32599.371087476145, -54622.03080916772, -2758.4064314849893, 7601.403606105281, -27561.489052950034, -7027.142587559532, 0.052000000000000005, 0.866, 0.462, 192.0, 0.0, 0.0, 0.0, 0.0, 0.0, 0.0, 0.0, 0.0, 0.0, 1.657492217388958E9, 0.0, 2022-07-10 18:30:17.388
51.0, 24475.450751239154, 11640.408532668178, -32716.51658016641, -54720.04320860424, -2886.57133419172, 8779.631111577883, -27701.94741510718, -6945.983403442312, 0.052000000000000005, 0.866, 0.462, 192.0, 0.0, 0.0, 0.0, 0.0, 0.0, 0.0, 0.0, 0.0, 0.0, 1.657492217396058E9, 0.0, 2022-07-10 18:30:17.396
52.0, 24716.08963204499, 11870.184465668735, -32690.722667064987, -54807.41617768004, -2832.2118916764134, 8375.3774613592, -27677.025220039515, -7254.146904247631, 0.052000000000000005, 0.866, 0.462, 192.0, 0.0, 0.0, 0.0, 0.0, 0.0, 0.0, 0.0, 0.0, 0.0, 1.657492217401742E9, 0.0, 2022-07-10 18:30:17.401
53.0, 25699.924015989785, 12154.006916762224, -32576.371142431635, -54717.02572310278, -2700.3365993901016, 7183.649502235592, -27527.983788011526, -7377.327367940828, 0.052000000000000005, 0.866, 0.462, 192.0, 0.0, 0.0, 0.0, 0.0, 0.0, 0.0, 0.0, 0.0, 0.0, 1.657492217401855E9, 0.0, 2022-07-10 18:30:17.401
54.0, 25614.02626204804, 11956.372792288399, -32591.07859028323, -54626.00941968077, -2737.127570763537, 7401.89193509721, -27533.482317147533, -7100.746882050858, 0.052000000000000005, 0.866, 0.462, 192.0, 0.0, 0.0, 0.0, 0.0, 0.0, 0.0, 0.0, 0.0, 0.0, 1.657492217408134E9, 0.0, 2022-07-10 18:30:17.408
55.0, 24582.314441479975, 11626.908079017172, -32699.909234036117, -54698.98786532735, -2856.4188309215106, 8655.064839728457, -27617.167248388203, -6902.598667454561, 0.054, 0.874, 0.458, 192.0, 1.0, 176.0, 27.0, 80.0, 14.0, 80.0, 0.0, 0.0, 0.0, 1.657492217408154E9, 0.0, 2022-07-10 18:30:17.408
56.0, 24554.374760910843, 11772.641452865775, -32705.497170149945, -54811.64065738209, -2836.928109756483, 8551.822132089394, -27632.74641427355, -7188.969217415955, 0.054, 0.874, 0.458, 192.0, 0.0, 0.0, 0.0, 0.0, 0.0, 0.0, 0.0, 0.0, 0.0, 1.65749221741449E9, 0.0, 2022-07-10 18:30:17.414
57.0, 25534.2752378315, 12104.87778244946, -32593.380819962123, -54753.81669447621, -2713.4570733853666, 7309.5345270078815, -27533.92935203664, -7386.513934911959, 0.054, 0.874, 0.458, 192.0, 0.0, 0.0, 0.0, 0.0, 0.0, 0.0, 0.0, 0.0, 0.0, 1.657492217414527E9, 0.0, 2022-07-10 18:30:17.414
58.0, 25716.79958305354, 12006.373644634921, -32561.708398068953, -54620.801463222684, -2704.5834308366098, 7215.008999706388, -27448.411577750634, -7092.163812180021, 0.054, 0.874, 0.458, 192.0, 0.0, 0.0, 0.0, 0.0, 0.0, 0.0, 0.0, 0.0, 0.0, 1.657492217420781E9, 0.0, 2022-07-10 18:30:17.420
59.0, 24715.12850703341, 11644.521253647954, -32672.483643589458, -54663.4038881545, -2828.3003363967346, 8486.711500491083, -27543.607657385786, -6850.496751129241, 0.054, 0.874, 0.458, 192.0, 0.0, 0.0, 0.0, 0.0, 0.0, 0.0, 0.0, 0.0, 0.0, 1.657492217420804E9, 0.0, 2022-07-10 18:30:17.420
60.0, 24423.997035503035, 11695.751451939519, -32713.275577220393, -54795.145069974074, -2841.823141792195, 8716.77800616956, -27592.870902165283, -7067.219265367898, 0.054, 0.874, 0.458, 192.0, 0.0, 0.0, 0.0, 0.0, 0.0, 0.0, 0.0, 0.0, 0.0, 1.657492217428503E9, 0.0, 2022-07-10 18:30:17.428
61.0, 25339.748005836966, 12037.554328150074, -32617.766573162866, -54778.04598546577, -2724.63294561302, 7525.005343557042, -27507.97897672403, -7333.629707530703, 0.054, 0.874, 0.458, 192.0, 0.0, 0.0, 0.0, 0.0, 0.0, 0.0, 0.0, 0.0, 0.0, 1.657492217428563E9, 0.0, 2022-07-10 18:30:17.428
62.0, 25760.6313539304, 12030.446473413287, -32570.604392362166, -54654.46319037237, -2699.129605189515, 7081.5467335637495, -27476.172444364125, -7191.047929650299, 0.054, 0.874, 0.458, 192.0, 0.0, 0.0, 0.0, 0.0, 0.0, 0.0, 0.0, 0.0, 0.0, 1.657492217434644E9, 0.0, 2022-07-10 18:30:17.434
63.0, 24862.225337293785, 11665.554245180398, -32668.885012732153, -54660.43110614194, -2825.3275543841787, 8245.603233051686, -27582.4102857602, -6908.030141357201, 0.054, 0.874, 0.458, 192.0, 0.0, 0.0, 0.0, 0.0, 0.0, 0.0, 0.0, 0.0, 0.0, 1.657492217434666E9, 0.0, 2022-07-10 18:30:17.434
64.0, 24345.743578165006, 11640.810864068373, -32725.390222715167, -54780.66113956704, -2859.2575024673347, 8803.905106056345, -27636.702673042142, -7038.2290528093645, 0.054, 0.874, 0.458, 192.0, 0.0, 0.0, 0.0, 0.0, 0.0, 0.0, 0.0, 0.0, 0.0, 1.657492217441095E9, 0.0, 2022-07-10 18:30:17.441
65.0, 25148.12650062162, 11988.447545581765, -32638.665454228576, -54782.69514831247, -2745.5541784231878, 7743.828921774498, -27554.425901702154, -7327.147701638663, 0.062, 0.874, 0.46, 192.0, 1.0, 240.0, 27.0, 80.0, 14.0, 96.0, 0.0, 0.0, 0.0, 1.657492217441121E9, 0.0, 2022-07-10 18:30:17.441
66.0, 25787.54285425459, 12069.070287832057, -32566.558726615756, -54667.33779517863, -2690.3453696185793, 7023.074570068667, -27495.21613064005, -7263.109953774208, 0.062, 0.874, 0.46, 192.0, 0.0, 0.0, 0.0, 0.0, 0.0, 0.0, 0.0, 0.0, 0.0, 1.657492217447307E9, 0.0, 2022-07-10 18:30:17.447
67.0, 25060.798235034734, 11726.239231376558, -32631.959930891986, -54626.92584120344, -2788.380120799556, 8020.945849531395, -27567.814596630884, -6937.020353915734, 0.062, 0.874, 0.46, 192.0, 0.0, 0.0, 0.0, 0.0, 0.0, 0.0, 0.0, 0.0, 0.0, 1.65749221746301E9, 0.0, 2022-07-10 18:30:17.463
68.0, 24347.91169737717, 11605.182183406614, -32719.109382523227, -54756.297738110756, -2868.958159560938, 8859.829170683524, -27650.247830182056, -6986.641226606515, 0.062, 0.874, 0.46, 192.0, 0.0, 0.0, 0.0, 0.0, 0.0, 0.0, 0.0, 0.0, 0.0, 1.657492217463039E9, 0.0, 2022-07-10 18:30:17.463
69.0, 24976.599213671594, 11930.444768720243, -32656.189221881537, -54796.5308781303, -2780.288789306735, 7989.832221249608, -27590.143989341737, -7298.425710013594, 0.062, 0.874, 0.46, 192.0, 0.0, 0.0, 0.0, 0.0, 0.0, 0.0, 0.0, 0.0, 0.0, 1.657492217475043E9, 0.0, 2022-07-10 18:30:17.475
70.0, 25784.368906541935, 12106.174183627867, -32558.601505589668, -54680.81589708518, -2686.858497483551, 7036.016230108289, -27510.661186058664, -7311.903811920144, 0.062, 0.874, 0.46, 192.0, 0.0, 0.0, 0.0, 0.0, 0.0, 0.0, 0.0, 0.0, 0.0, 1.657492217481379E9, 0.0, 2022-07-10 18:30:17.481
71.0, 25265.60726947871, 11805.699682915174, -32611.68689867102, -54617.158128876465, -2770.3422630241234, 7768.169971486327, -27586.45595150661, -7003.695607625915, 0.062, 0.874, 0.46, 192.0, 0.0, 0.0, 0.0, 0.0, 0.0, 0.0, 0.0, 0.0, 0.0, 1.657492217481417E9, 0.0, 2022-07-10 18:30:17.481
72.0, 24399.723041024572, 11599.504840314967, -32717.991795300462, -54726.83813891866, -2888.9182673595274, 8828.112045301443, -27718.420650770742, -6975.107726467577, 0.062, 0.874, 0.46, 192.0, 0.0, 0.0, 0.0, 0.0, 0.0, 0.0, 0.0, 0.0, 0.0, 1.65749221748783E9, 0.0, 2022-07-10 18:30:17.487
73.0, 24820.38287167345, 11864.73064002164, -32674.94233547954, -54805.38216893461, -2809.2119466319023, 8223.76557871885, -27629.930094472184, -7279.002044081932, 0.062, 0.874, 0.46, 192.0, 0.0, 0.0, 0.0, 0.0, 0.0, 0.0, 0.0, 0.0, 0.0, 1.657492217487865E9, 0.0, 2022-07-10 18:30:17.487
74.0, 25725.740280835664, 12122.44625359133, -32556.6345520776, -54703.74878689633, -2675.4814595558, 7085.413585354518, -27469.48927277199, -7343.017440201931, 0.062, 0.874, 0.46, 192.0, 0.0, 0.0, 0.0, 0.0, 0.0, 0.0, 0.0, 0.0, 0.0, 1.657492217503185E9, 0.0, 2022-07-10 18:30:17.503
75.0, 25454.434806637146, 11893.117355479879, -32579.992125033397, -54612.2407450963, -2731.0031927827827, 7526.480558691092, -27500.178217909124, -7029.221299793876, 0.058, 0.878, 0.454, 192.0, 1.0, 208.0, 27.0, 112.0, 14.0, 48.0, 0.0, 0.0, 0.0, 1.657492217518116E9, 0.0, 2022-07-10 18:30:17.518
76.0, 24500.66351898474, 11614.301695144379, -32688.688658319556, -54699.74782463883, -2852.060240752726, 8741.901366937323, -27636.27798989749, -6902.88924013248, 0.058, 0.878, 0.454, 192.0, 0.0, 0.0, 0.0, 0.0, 0.0, 0.0, 0.0, 0.0, 0.0, 1.657492217524691E9, 0.0, 2022-07-10 18:30:17.524
77.0, 24663.272459897096, 11818.2390115546, -32683.301887905825, -54799.99539852088, -2828.70266779693, 8420.438578181098, -27680.221519496623, -7220.127549186654, 0.058, 0.878, 0.454, 192.0, 0.0, 0.0, 0.0, 0.0, 0.0, 0.0, 0.0, 0.0, 0.0, 1.657492217524742E9, 0.0, 2022-07-10 18:30:17.524
78.0, 25614.62975914833, 12128.25770714971, -32565.44113939299, -54715.34934226863, -2701.3424278905904, 7203.609610034181, -27545.038169030926, -7364.989205001499, 0.058, 0.878, 0.454, 192.0, 0.0, 0.0, 0.0, 0.0, 0.0, 0.0, 0.0, 0.0, 0.0, 1.657492217540178E9, 0.0, 2022-07-10 18:30:17.540
79.0, 25615.16620101526, 11981.89848445636, -32548.900848496065, -54589.821945407624, -2707.2209366823363, 7342.883329735199, -27487.19185438059, -7071.756669492325, 0.058, 0.878, 0.454, 192.0, 0.0, 0.0, 0.0, 0.0, 0.0, 0.0, 0.0, 0.0, 0.0, 1.657492217540214E9, 0.0, 2022-07-10 18:30:17.540
80.0, 24648.922639956792, 11652.456122929589, -32664.057035929807, -54649.43404786993, -2821.3936473600447, 8642.212586666654, -27559.946782582618, -6853.424829652886, 0.058, 0.878, 0.454, 192.0, 0.0, 0.0, 0.0, 0.0, 0.0, 0.0, 0.0, 0.0, 0.0, 1.657492217550538E9, 0.0, 2022-07-10 18:30:17.550
81.0, 24556.252307445087, 11777.3800226903, -32687.615774585698, -54780.01293897784, -2817.705609524919, 8630.23205163861, -27586.45595150661, -7116.057827002744, 0.058, 0.878, 0.454, 192.0, 0.0, 0.0, 0.0, 0.0, 0.0, 0.0, 0.0, 0.0, 0.0, 1.657492217556756E9, 0.0, 2022-07-10 18:30:17.556
82.0, 25473.03145802396, 12096.719395723272, -32591.436218194514, -54746.015935661315, -2702.0129802242495, 7377.774402829934, -27506.414354612156, -7346.146684425675, 0.058, 0.878, 0.454, 192.0, 0.0, 0.0, 0.0, 0.0, 0.0, 0.0, 0.0, 0.0, 0.0, 1.657492217556787E9, 0.0, 2022-07-10 18:30:17.556
83.0, 25708.708251560718, 12024.52326113263, -32558.78031954531, -54627.439931325905, -2692.1782126639146, 7172.630092219126, -27496.311366118356, -7146.724420395425, 0.058, 0.878, 0.454, 192.0, 0.0, 0.0, 0.0, 0.0, 0.0, 0.0, 0.0, 0.0, 0.0, 1.657492217563185E9, 0.0, 2022-07-10 18:30:17.563
84.0, 24792.309080637584, 11672.371527239267, -32667.476852831467, -54653.50206536079, -2825.305202639723, 8440.733962146516, -27616.519047799, -6895.26729527322, 0.058, 0.878, 0.454, 192.0, 0.0, 0.0, 0.0, 0.0, 0.0, 0.0, 0.0, 0.0, 0.0, 1.657492217563239E9, 0.0, 2022-07-10 18:30:17.563
85.0, 24465.571280189906, 11710.168327113191, -32714.683737121075, -54789.914761771535, -2852.887255297572, 8757.927567711778, -27659.322638430913, -7100.12103320611, 0.05, 0.878, 0.446, 192.0, 1.0, 144.0, 27.0, 112.0, 13.0, 240.0, 0.0, 0.0, 0.0, 1.657492217569706E9, 0.0, 2022-07-10 18:30:17.569
86.0, 25307.181514165582, 12054.251081258188, -32621.476962742447, -54777.956578487945, -2739.988594053816, 7565.596111487879, -27584.42194276118, -7392.839478592811, 0.05, 0.878, 0.446, 192.0, 0.0, 0.0, 0.0, 0.0, 0.0, 0.0, 0.0, 0.0, 0.0, 1.657492217569757E9, 0.0, 2022-07-10 18:30:17.569
87.0, 25776.05405760456, 12087.801049685604, -32549.660807807544, -54641.05214369919, -2683.9527707043617, 7047.594433736138, -27517.098488461794, -7238.992421506932, 0.05, 0.878, 0.446, 192.0, 0.0, 0.0, 0.0, 0.0, 0.0, 0.0, 0.0, 0.0, 0.0, 1.657492217575471E9, 0.0, 2022-07-10 18:30:17.575
88.0, 24970.050152546188, 11743.94181298516, -32634.17275359306, -54622.45549231237, -2790.6599987339973, 8197.56933421723, -27579.92924212566, -6904.431510499896, 0.05, 0.878, 0.446, 192.0, 0.0, 0.0, 0.0, 0.0, 0.0, 0.0, 0.0, 0.0, 0.0, 1.657492217575491E9, 0.0, 2022-07-10 18:30:17.575
89.0, 24424.868753536794, 11678.250036031013, -32708.76052484042, -54762.77974400279, -2838.582138846176, 8842.439513497295, -27630.4218328502, -7016.637267665537, 0.05, 0.878, 0.446, 192.0, 0.0, 0.0, 0.0, 0.0, 0.0, 0.0, 0.0, 0.0, 0.0, 1.657492217581748E9, 0.0, 2022-07-10 18:30:17.581
90.0, 25129.999235868363, 12003.534973089096, -32626.304939544792, -54787.85840128165, -2730.578509638132, 7802.949285858785, -27547.519212665466, -7328.73467549499, 0.05, 0.878, 0.446, 192.0, 0.0, 0.0, 0.0, 0.0, 0.0, 0.0, 0.0, 0.0, 0.0, 1.657492217581778E9, 0.0, 2022-07-10 18:30:17.581
91.0, 25777.261051805148, 12105.905962694404, -32553.795880531776, -54671.763440580784, -2670.161744375437, 6999.582886646139, -27484.91197644615, -7280.231390026974, 0.05, 0.878, 0.446, 192.0, 0.0, 0.0, 0.0, 0.0, 0.0, 0.0, 0.0, 0.0, 0.0, 1.657492217587995E9, 0.0, 2022-07-10 18:30:17.587
92.0, 25147.053616887762, 11782.56562740393, -32622.058108098285, -54631.01621043876, -2767.280074033746, 7938.043229346661, -27563.12073029527, -6960.713203038359, 0.05, 0.878, 0.446, 192.0, 0.0, 0.0, 0.0, 0.0, 0.0, 0.0, 0.0, 0.0, 0.0, 1.657492217588054E9, 0.0, 2022-07-10 18:30:17.588
93.0, 24424.64523609224, 11640.073256501348, -32708.738173095964, -54750.553339785736, -2855.569464632209, 8845.456998998761, -27655.500490129056, -6986.440060906418, 0.05, 0.878, 0.446, 192.0, 0.0, 0.0, 0.0, 0.0, 0.0, 0.0, 0.0, 0.0, 0.0, 1.657492217603277E9, 0.0, 2022-07-10 18:30:17.603
94.0, 24962.294097220194, 11933.439902477254, -32653.529364291357, -54807.17030849103, -2774.8573154040955, 8033.68634387092, -27602.25863483651, -7307.858146173733, 0.05, 0.878, 0.446, 192.0, 0.0, 0.0, 0.0, 0.0, 0.0, 0.0, 0.0, 0.0, 0.0, 1.657492217603298E9, 0.0, 2022-07-10 18:30:17.603
95.0, 25750.729531136698, 12125.664904792895, -32558.02036023383, -54696.48446994835, -2679.2142008798364, 7018.693628155426, -27518.01490998446, -7335.909585465144, 0.044, 0.878, 0.436, 192.0, 1.0, 96.0, 27.0, 112.0, 13.0, 160.0, 0.0, 0.0, 0.0, 1.657492217615635E9, 0.0, 2022-07-10 18:30:17.615
96.0, 25326.448717886058, 11849.3973433253, -32600.846302610196, -54613.738311974805, -2760.5298472082436, 7692.933999649764, -27566.227622774557, -7010.222317006865, 0.044, 0.878, 0.436, 192.0, 0.0, 0.0, 0.0, 0.0, 0.0, 0.0, 0.0, 0.0, 0.0, 1.657492217622752E9, 0.0, 2022-07-10 18:30:17.622
97.0, 24474.93666111668, 11618.235602168514, -32713.85672257623, -54733.141330855055, -2871.7074241289406, 8810.70003637076, -27698.594653438886, -6968.08927870861, 0.044, 0.878, 0.436, 192.0, 0.0, 0.0, 0.0, 0.0, 0.0, 0.0, 0.0, 0.0, 0.0, 1.657492217622776E9, 0.0, 2022-07-10 18:30:17.622
98.0, 24792.800819015603, 11875.526532593552, -32676.84223375824, -54810.34425620369, -2803.1769756289696, 8251.660555799073, -27691.933833591203, -7299.945628636555, 0.044, 0.878, 0.436, 192.0, 0.0, 0.0, 0.0, 0.0, 0.0, 0.0, 0.0, 0.0, 0.0, 1.657492217629225E9, 0.0, 2022-07-10 18:30:17.629
99.0, 25663.580079505457, 12131.319896140087, -32570.023247006327, -54715.43874924645, -2699.643695311987, 7079.110393418121, -27577.82817814686, -7408.9103828561765, 0.044, 0.878, 0.436, 192.0, 0.0, 0.0, 0.0, 0.0, 0.0, 0.0, 0.0, 0.0, 0.0, 1.657492217629267E9, 0.0, 2022-07-10 18:30:17.629
100.0, 25487.560091919913, 11932.277611765578, -32573.621877863632, -54600.93076240191, -2728.6786113594308, 7462.576921293369, -27521.16650595266, -7083.066652186711, 0.044, 0.878, 0.436, 192.0, 0.0, 0.0, 0.0, 0.0, 0.0, 0.0, 0.0, 0.0, 0.0, 1.657492217635145E9, 0.0, 2022-07-10 18:30:17.635
101.0, 24581.509778679585, 11641.324954190846, -32682.206652427514, -54680.39121394053, -2834.2459004218463, 8726.545718496529, -27585.517178239486, -6903.202164554855, 0.044, 0.878, 0.436, 192.0, 0.0, 0.0, 0.0, 0.0, 0.0, 0.0, 0.0, 0.0, 0.0, 1.657492217635165E9, 0.0, 2022-07-10 18:30:17.635
102.0, 24676.16941644781, 11815.802671408972, -32676.32814363577, -54789.84770653817, -2800.3606558276006, 8485.973892924058, -27590.99335563104, -7183.4483365354945, 0.044, 0.878, 0.436, 192.0, 0.0, 0.0, 0.0, 0.0, 0.0, 0.0, 0.0, 0.0, 0.0, 1.657492217643499E9, 0.0, 2022-07-10 18:30:17.643
103.0, 25573.055514461463, 12117.864145977992, -32570.71615108444, -54724.35709528412, -2682.343445103579, 7244.602709365215, -27513.87983726023, -7370.532437626414, 0.044, 0.878, 0.436, 192.0, 0.0, 0.0, 0.0, 0.0, 0.0, 0.0, 0.0, 0.0, 0.0, 1.657492217643537E9, 0.0, 2022-07-10 18:30:17.643
104.0, 25619.21186676167, 11986.882923469893, -32561.06019747975, -54610.117329373046, -2701.4094831239563, 7268.094392787742, -27531.314197935368, -7140.980022070411, 0.044, 0.878, 0.436, 192.0, 0.0, 0.0, 0.0, 0.0, 0.0, 0.0, 0.0, 0.0, 0.0, 1.657492217658442E9, 0.0, 2022-07-10 18:30:17.658
105.0, 24695.235454468188, 11659.429867199644, -32666.94041096454, -54659.38057415254, -2826.445141606944, 8535.617117359296, -27641.55300158894, -6936.349801582075, 0.038, 0.89, 0.43, 192.0, 1.0, 48.0, 27.0, 208.0, 13.0, 112.0, 0.0, 0.0, 0.0, 1.657492217674313E9, 0.0, 2022-07-10 18:30:17.674
106.0, 24551.80431029848, 11766.248853951556, -32689.42626588658, -54782.53868610128, -2819.314935125701, 8613.08826364139, -27657.914478530227, -7184.789441202813, 0.038, 0.89, 0.43, 192.0, 0.0, 0.0, 0.0, 0.0, 0.0, 0.0, 0.0, 0.0, 0.0, 1.657492217683506E9, 0.0, 2022-07-10 18:30:17.683
107.0, 25425.93633245663, 12100.63095100295, -32582.361409945657, -54742.707877481924, -2690.323017874124, 7395.432280949626, -27499.373555108734, -7375.472173151037, 0.038, 0.89, 0.43, 192.0, 0.0, 0.0, 0.0, 0.0, 0.0, 0.0, 0.0, 0.0, 0.0, 1.657492217690014E9, 0.0, 2022-07-10 18:30:17.690
108.0, 25710.563446350512, 12057.246215015199, -32539.624874547113, -54615.504099786776, -2674.8556107110517, 7105.686617575481, -27468.595202993776, -7166.729231682924, 0.038, 0.89, 0.43, 192.0, 0.0, 0.0, 0.0, 0.0, 0.0, 0.0, 0.0, 0.0, 0.0, 1.657492217690034E9, 0.0, 2022-07-10 18:30:17.690
109.0, 24856.369180246496, 11704.26746657699, -32646.488564787935, -54635.46420758536, -2802.059388406204, 8351.639908747662, -27579.50455898101, -6896.943676107368, 0.038, 0.89, 0.43, 192.0, 0.0, 0.0, 0.0, 0.0, 0.0, 0.0, 0.0, 0.0, 0.0, 1.657492217696702E9, 0.0, 2022-07-10 18:30:17.696
110.0, 24478.267071040522, 11715.063359148904, -32696.176492712082, -54766.490133582374, -2826.020458462293, 8756.027669433079, -27622.37520484629, -7075.578817794182, 0.038, 0.89, 0.43, 192.0, 0.0, 0.0, 0.0, 0.0, 0.0, 0.0, 0.0, 0.0, 0.0, 1.657492217696738E9, 0.0, 2022-07-10 18:30:17.696
111.0, 25257.538289730346, 12044.52807242013, -32609.764648647866, -54768.77001151681, -2718.3968089099894, 7617.139234201817, -27549.50851792199, -7367.917283525144, 0.038, 0.89, 0.43, 192.0, 0.0, 0.0, 0.0, 0.0, 0.0, 0.0, 0.0, 0.0, 0.0, 1.657492217702879E9, 0.0, 2022-07-10 18:30:17.702
112.0, 25751.780063126098, 12097.479355034751, -32539.267246635827, -54637.76643726426, -2668.552418774655, 7019.811215378191, -27511.465848859054, -7263.713450874502, 0.038, 0.89, 0.43, 192.0, 0.0, 0.0, 0.0, 0.0, 0.0, 0.0, 0.0, 0.0, 0.0, 1.657492217702931E9, 0.0, 2022-07-10 18:30:17.702
113.0, 25018.888714181034, 11766.204150462647, -32620.426430753047, -54614.85589919757, -2777.2489520608133, 8113.303257620723, -27565.93705009664, -6945.402258086474, 0.038, 0.89, 0.43, 192.0, 0.0, 0.0, 0.0, 0.0, 0.0, 0.0, 0.0, 0.0, 0.0, 1.657492217709705E9, 0.0, 2022-07-10 18:30:17.709
114.0, 24445.678227624685, 11679.345271509323, -32701.85383580373, -54752.922624698, -2841.0408307362595, 8818.74666437467, -27636.255638153034, -7041.894738900035, 0.038, 0.89, 0.43, 192.0, 0.0, 0.0, 0.0, 0.0, 0.0, 0.0, 0.0, 0.0, 0.0, 1.657492217709758E9, 0.0, 2022-07-10 18:30:17.709
115.0, 25090.72722086039, 11999.176382920312, -32628.785983179332, -54784.61739833563, -2741.843788843607, 7843.741219489721, -27576.867053135284, -7345.07380069182, 0.034, 0.888, 0.428, 192.0, 1.0, 16.0, 27.0, 192.0, 13.0, 96.0, 0.0, 0.0, 0.0, 1.657492217716003E9, 0.0, 2022-07-10 18:30:17.716
116.0, 25751.601249170453, 12133.867995007991, -32540.854220492154, -54658.7994287967, -2663.5232762722108, 6983.869610294058, -27505.274415644937, -7307.388759540172, 0.034, 0.888, 0.428, 192.0, 0.0, 0.0, 0.0, 0.0, 0.0, 0.0, 0.0, 0.0, 0.0, 1.657492217716048E9, 0.0, 2022-07-10 18:30:17.716
117.0, 25198.50733262388, 11809.946514361682, -32614.905549872587, -54611.10080612908, -2770.968111868872, 7874.69838556032, -27569.379218742757, -6982.1708777154545, 0.034, 0.888, 0.428, 192.0, 0.0, 0.0, 0.0, 0.0, 0.0, 0.0, 0.0, 0.0, 0.0, 1.657492217722013E9, 0.0, 2022-07-10 18:30:17.722
118.0, 24461.905594099237, 11642.554300135887, -32711.353327197234, -54744.63012750509, -2857.5811216331867, 8833.051780826067, -27653.734702317084, -6996.923029055957, 0.034, 0.888, 0.428, 192.0, 0.0, 0.0, 0.0, 0.0, 0.0, 0.0, 0.0, 0.0, 0.0, 1.657492217722034E9, 0.0, 2022-07-10 18:30:17.722
119.0, 24914.41666059693, 11938.513748468607, -32646.823840954763, -54796.32971243021, -2758.4958384628103, 8061.067230828671, -27576.04003859044, -7312.239088086973, 0.034, 0.888, 0.428, 192.0, 0.0, 0.0, 0.0, 0.0, 0.0, 0.0, 0.0, 0.0, 0.0, 1.6574922177287E9, 0.0, 2022-07-10 18:30:17.728
120.0, 25704.46142011421, 12144.887405024458, -32545.01164496084, -54681.39704244102, -2665.803154206652, 7007.2942384832195, -27487.169502636138, -7350.393515872182, 0.034, 0.888, 0.428, 192.0, 0.0, 0.0, 0.0, 0.0, 0.0, 0.0, 0.0, 0.0, 0.0, 1.65749221772878E9, 0.0, 2022-07-10 18:30:17.728
121.0, 25360.289258991394, 11886.478887376654, -32585.222433235936, -54603.881192670015, -2738.803951597685, 7613.406492877781, -27534.085814247825, -7036.753837675315, 0.034, 0.888, 0.428, 192.0, 0.0, 0.0, 0.0, 0.0, 0.0, 0.0, 0.0, 0.0, 0.0, 1.657492217734723E9, 0.0, 2022-07-10 18:30:17.734
122.0, 24516.823830225927, 11653.21608224107, -32691.79555079884, -54699.166679282986, -2847.5898918616645, 8760.185093901766, -27638.356702131834, -6960.534389082717, 0.034, 0.888, 0.428, 192.0, 0.0, 0.0, 0.0, 0.0, 0.0, 0.0, 0.0, 0.0, 0.0, 1.657492217741322E9, 0.0, 2022-07-10 18:30:17.741
123.0, 24773.1983391283, 11891.552733368007, -32667.298038875826, -54786.11496521413, -2790.436481289444, 8296.274637731867, -27618.731870500073, -7266.82034335379, 0.034, 0.888, 0.428, 192.0, 0.0, 0.0, 0.0, 0.0, 0.0, 0.0, 0.0, 0.0, 0.0, 1.657492217741378E9, 0.0, 2022-07-10 18:30:17.741
124.0, 25633.11465181287, 12154.45395165133, -32561.149604457572, -54702.385330484554, -2678.2530758682583, 7111.565126367227, -27535.2481049595, -7399.500298440493, 0.034, 0.888, 0.428, 192.0, 0.0, 0.0, 0.0, 0.0, 0.0, 0.0, 0.0, 0.0, 0.0, 1.657492217747369E9, 0.0, 2022-07-10 18:30:17.747
125.0, 25515.298606788947, 11953.288251553566, -32568.816252805744, -54598.67323621193, -2721.68251534492, 7383.339987199305, -27551.095491778317, -7116.817786314224, 0.038, 0.884, 0.422, 192.0, 1.0, 48.0, 27.0, 160.0, 13.0, 48.0, 0.0, 0.0, 0.0, 1.657492217747389E9, 0.0, 2022-07-10 18:30:17.747
126.0, 24625.25214257862, 11647.605794382787, -32691.728495565476, -54678.8042400842, -2863.370223447111, 8648.627537325328, -27692.96201383615, -6962.121362939044, 0.038, 0.884, 0.422, 192.0, 0.0, 0.0, 0.0, 0.0, 0.0, 0.0, 0.0, 0.0, 0.0, 1.657492217753611E9, 0.0, 2022-07-10 18:30:17.753
127.0, 24647.849756222935, 11813.321627774434, -32682.60898382771, -54789.69124432698, -2816.185690901958, 8483.805773711894, -27649.55492610394, -7236.489026127938, 0.038, 0.884, 0.422, 192.0, 0.0, 0.0, 0.0, 0.0, 0.0, 0.0, 0.0, 0.0, 0.0, 1.657492217753639E9, 0.0, 2022-07-10 18:30:17.753
128.0, 25523.099365603848, 12141.221718933788, -32562.87068878063, -54715.43874924645, -2678.118965401526, 7252.202302480019, -27513.07517445984, -7394.024121048942, 0.038, 0.884, 0.422, 192.0, 0.0, 0.0, 0.0, 0.0, 0.0, 0.0, 0.0, 0.0, 0.0, 1.657492217759687E9, 0.0, 2022-07-10 18:30:17.759
129.0, 25643.88819264033, 12032.413426925354, -32545.63749380559, -54596.0357303662, -2683.595142793077, 7206.627095535648, -27464.370723291722, -7145.65153666157, 0.038, 0.884, 0.422, 192.0, 0.0, 0.0, 0.0, 0.0, 0.0, 0.0, 0.0, 0.0, 0.0, 1.657492217759721E9, 0.0, 2022-07-10 18:30:17.759
130.0, 24758.245022087696, 11704.289818321446, -32646.667378743576, -54637.34175411961, -2802.9758099288715, 8476.072070130358, -27559.008009315494, -6907.493699490274, 0.038, 0.884, 0.422, 192.0, 0.0, 0.0, 0.0, 0.0, 0.0, 0.0, 0.0, 0.0, 0.0, 1.657492217766136E9, 0.0, 2022-07-10 18:30:17.766
131.0, 24552.541917865507, 11796.602522921863, -32670.5613935663, -54754.666060765514, -2806.5297372972655, 8632.064894683945, -27599.397611546232, -7132.486359177395, 0.038, 0.884, 0.422, 192.0, 0.0, 0.0, 0.0, 0.0, 0.0, 0.0, 0.0, 0.0, 0.0, 1.657492217766222E9, 0.0, 2022-07-10 18:30:17.766
132.0, 25386.68666919311, 12121.529832068663, -32570.671447595534, -54724.267688306296, -2687.461994583845, 7427.909365643188, -27512.62813957073, -7384.211705233062, 0.038, 0.884, 0.422, 192.0, 0.0, 0.0, 0.0, 0.0, 0.0, 0.0, 0.0, 0.0, 0.0, 1.657492217772189E9, 0.0, 2022-07-10 18:30:17.772
133.0, 25727.10373724744, 12088.136325852434, -32530.661825020532, -54604.66350372595, -2675.4367560668893, 7058.569140263694, -27488.555310792366, -7224.530842844349, 0.038, 0.884, 0.422, 192.0, 0.0, 0.0, 0.0, 0.0, 0.0, 0.0, 0.0, 0.0, 0.0, 1.657492217772208E9, 0.0, 2022-07-10 18:30:17.772
134.0, 24921.323349633618, 11733.592955302352, -32635.156230349094, -54621.76258823426, -2805.9038884525166, 8259.595425080708, -27612.272216352492, -6950.073772677633, 0.038, 0.884, 0.422, 192.0, 0.0, 0.0, 0.0, 0.0, 0.0, 0.0, 0.0, 0.0, 0.0, 1.657492217778822E9, 0.0, 2022-07-10 18:30:17.778
135.0, 24500.015318395534, 11719.89133595125, -32693.538986866355, -54760.94690095746, -2843.2313016928797, 8731.954840654713, -27673.940679304684, -7113.733245579392, 0.036000000000000004, 0.882, 0.42, 192.0, 1.0, 32.0, 27.0, 144.0, 13.0, 32.0, 0.0, 0.0, 0.0, 1.657492217778901E9, 0.0, 2022-07-10 18:30:17.778
136.0, 25237.66758890958, 12046.830302099026, -32608.40119223609, -54766.55718881574, -2739.7874283537185, 7632.3160686869705, -27587.394724773734, -7406.8540223662885, 0.036000000000000004, 0.882, 0.42, 192.0, 0.0, 0.0, 0.0, 0.0, 0.0, 0.0, 0.0, 0.0, 0.0, 1.657492217784826E9, 0.0, 2022-07-10 18:30:17.784
137.0, 25769.125016823415, 12116.031302932657, -32541.033034447795, -54646.86359725757, -2688.3337126176016, 6968.938644997913, -27528.274360689447, -7321.850338202756, 0.036000000000000004, 0.882, 0.42, 192.0, 0.0, 0.0, 0.0, 0.0, 0.0, 0.0, 0.0, 0.0, 0.0, 1.657492217790835E9, 0.0, 2022-07-10 18:30:17.790
138.0, 25085.83218882468, 11788.175915262213, -32618.750049918897, -54613.872422441535, -2791.665827234486, 8002.684474311409, -27587.484131751557, -6988.42936616294, 0.036000000000000004, 0.882, 0.42, 192.0, 0.0, 0.0, 0.0, 0.0, 0.0, 0.0, 0.0, 0.0, 0.0, 1.657492217790856E9, 0.0, 2022-07-10 18:30:17.790
139.0, 24474.623736694306, 11703.261638076501, -32693.829559544276, -54736.80701694573, -2852.663737853019, 8779.0723179665, -27652.125376716303, -7046.432143024462, 0.036000000000000004, 0.882, 0.42, 192.0, 0.0, 0.0, 0.0, 0.0, 0.0, 0.0, 0.0, 0.0, 0.0, 1.657492217797056E9, 0.0, 2022-07-10 18:30:17.797
140.0, 25055.836147765654, 12012.788595293594, -32631.84817216971, -54780.549380844765, -2760.351033252601, 7858.202798152304, -27592.580329487366, -7372.879370794221, 0.036000000000000004, 0.882, 0.42, 192.0, 0.0, 0.0, 0.0, 0.0, 0.0, 0.0, 0.0, 0.0, 0.0, 1.65749221779709E9, 0.0, 2022-07-10 18:30:17.797
141.0, 25746.66151364583, 12140.864091022504, -32546.86683975063, -54671.31640569168, -2684.7127300158418, 6947.838598232102, -27523.96047400957, -7366.911455024655, 0.036000000000000004, 0.882, 0.42, 192.0, 0.0, 0.0, 0.0, 0.0, 0.0, 0.0, 0.0, 0.0, 0.0, 1.657492217803198E9, 0.0, 2022-07-10 18:30:17.803
142.0, 25244.52957445736, 11823.37991277932, -32596.06302929676, -54608.12802411652, -2764.5978646991093, 7754.401296901858, -27564.663000662687, -7022.024038079267, 0.036000000000000004, 0.882, 0.42, 192.0, 0.0, 0.0, 0.0, 0.0, 0.0, 0.0, 0.0, 0.0, 0.0, 1.657492217803224E9, 0.0, 2022-07-10 18:30:17.803
143.0, 24489.08531535689, 11628.562108106866, -32701.742077081453, -54723.48537725036, -2864.1301827585917, 8785.084937224978, -27654.829937795395, -7003.71795937037, 0.036000000000000004, 0.882, 0.42, 192.0, 0.0, 0.0, 0.0, 0.0, 0.0, 0.0, 0.0, 0.0, 0.0, 1.657492217809303E9, 0.0, 2022-07-10 18:30:17.809
144.0, 24888.64509923996, 11908.942390554237, -32651.025968912363, -54790.115927471634, -2779.0147398727822, 8103.759062738307, -27603.644442992743, -7324.085512648287, 0.036000000000000004, 0.882, 0.42, 192.0, 0.0, 0.0, 0.0, 0.0, 0.0, 0.0, 0.0, 0.0, 0.0, 1.657492217809328E9, 0.0, 2022-07-10 18:30:17.809
145.0, 25682.869634970386, 12123.87676523647, -32547.403281617557, -54681.911132563495, -2673.939189188384, 7011.384607718541, -27521.859410030775, -7394.9405425716095, 0.032, 0.888, 0.41400000000000003, 192.0, 1.0, 0.0, 27.0, 192.0, 12.0, 240.0, 0.0, 0.0, 0.0, 1.657492217815869E9, 0.0, 2022-07-10 18:30:17.815
146.0, 25386.06082034836, 11865.401192355299, -32576.907584298562, -54602.71890195834, -2730.734971849319, 7513.673009118201, -27563.321895995367, -7107.541812365272, 0.032, 0.888, 0.41400000000000003, 192.0, 0.0, 0.0, 0.0, 0.0, 0.0, 0.0, 0.0, 0.0, 0.0, 1.657492217816111E9, 0.0, 2022-07-10 18:30:17.816
147.0, 24528.71495827615, 11590.519439043932, -32705.497170149945, -54713.360037012106, -2870.3886712060776, 8690.134726778833, -27699.466371472645, -7031.702343428415, 0.032, 0.888, 0.41400000000000003, 192.0, 0.0, 0.0, 0.0, 0.0, 0.0, 0.0, 0.0, 0.0, 0.0, 1.657492217821646E9, 0.0, 2022-07-10 18:30:17.821
148.0, 24709.40646045285, 11792.623912408819, -32685.89469026264, -54813.406445194065, -2817.482092080366, 8300.409710456099, -27646.448033624656, -7306.248820572951, 0.032, 0.888, 0.41400000000000003, 192.0, 0.0, 0.0, 0.0, 0.0, 0.0, 0.0, 0.0, 0.0, 0.0, 1.657492217821666E9, 0.0, 2022-07-10 18:30:17.821
149.0, 25556.73874100909, 12070.210226799278, -32564.681180081512, -54726.74873194084, -2678.5436485461773, 7101.216268684419, -27491.416334082645, -7416.577031204347, 0.032, 0.888, 0.41400000000000003, 192.0, 0.0, 0.0, 0.0, 0.0, 0.0, 0.0, 0.0, 0.0, 0.0, 1.657492217827911E9, 0.0, 2022-07-10 18:30:17.827
150.0, 25496.590196679856, 11905.544925397031, -32555.7851857883, -54609.37972180602, -2699.8225092676294, 7293.128346577686, -27499.261796386458, -7139.974193569922, 0.032, 0.888, 0.41400000000000003, 192.0, 0.0, 0.0, 0.0, 0.0, 0.0, 0.0, 0.0, 0.0, 0.0, 1.657492217827941E9, 0.0, 2022-07-10 18:30:17.827
151.0, 24610.745860427127, 11600.06363392635, -32673.13184417866, -54680.39121394053, -2834.5811765886756, 8561.008699060523, -27616.206123376625, -6965.138848440511, 0.032, 0.888, 0.41400000000000003, 192.0, 0.0, 0.0, 0.0, 0.0, 0.0, 0.0, 0.0, 0.0, 0.0, 1.657492217833852E9, 0.0, 2022-07-10 18:30:17.833
152.0, 24569.05985701798, 11736.543385570454, -32688.75571355292, -54800.12950898761, -2820.253708392824, 8482.196448111112, -27628.253713638034, -7236.6901918280355, 0.032, 0.888, 0.41400000000000003, 192.0, 0.0, 0.0, 0.0, 0.0, 0.0, 0.0, 0.0, 0.0, 0.0, 1.657492217840006E9, 0.0, 2022-07-10 18:30:17.840
153.0, 25415.296902095903, 12034.648601370884, -32584.68599136901, -54746.6194327616, -2701.6777040574198, 7248.737782089446, -27534.711663092574, -7443.220310595073, 0.032, 0.888, 0.41400000000000003, 192.0, 0.0, 0.0, 0.0, 0.0, 0.0, 0.0, 0.0, 0.0, 0.0, 1.657492217840034E9, 0.0, 2022-07-10 18:30:17.840
154.0, 25585.34897391188, 11956.439847521764, -32557.193345688982, -54619.66152425546, -2704.1810994364146, 7109.553469366249, -27532.476488647044, -7235.19262494953, 0.032, 0.888, 0.41400000000000003, 192.0, 0.0, 0.0, 0.0, 0.0, 0.0, 0.0, 0.0, 0.0, 0.0, 1.65749221784594E9, 0.0, 2022-07-10 18:30:17.845
155.0, 24737.41319625535, 11617.341532390301, -32668.54973656532, -54654.53024560574, -2839.3644499021116, 8375.46686833702, -27641.016559722015, -6985.300121939197, 0.036000000000000004, 0.89, 0.40800000000000003, 192.0, 1.0, 32.0, 27.0, 208.0, 12.0, 192.0, 0.0, 0.0, 0.0, 1.65749221784596E9, 0.0, 2022-07-10 18:30:17.845
