%OpenBCI Raw EEG Data
%Number of channels = 8
%Sample Rate = 250 Hz
%Board = OpenBCI_GUI$BoardCytonSerial
Sample Index, EXG Channel 0, EXG Channel 1, EXG Channel 2, EXG Channel 3, EXG Channel 4, EXG Channel 5, EXG Channel 6, EXG Channel 7, Accel Channel 0, Accel Channel 1, Accel Channel 2, Other, Other, Other, Other, Other, Other, Other, Analog Channel 0, Analog Channel 1, Analog Channel 2, Timestamp, Other, Timestamp (Formatted)
13.0, 17184.602282595908, 9477.720794406032, -27330.97551238245, -49493.62420959762, 1176.171144982713, -1221.679296693718, -23129.18283095155, -4593.708168710252, 0.0, 0.0, 0.0, 192.0, 0.0, 0.0, 0.0, 0.0, 0.0, 0.0, 0.0, 0.0, 0.0, 1.657492422138213E9, 0.0, 2022-07-10 18:33:42.138
14.0, 25677.92989944576, 9805.240905909646, -27795.422410419276, -47890.75826296309, -48.682099423658784, 10145.210939074866, -24277.57075757632, -1910.2471363839074, 0.0, 0.0, 0.0, 192.0, 0.0, 0.0, 0.0, 0.0, 0.0, 0.0, 0.0, 0.0, 0.0, 1.657492422138236E9, 0.0, 2022-07-10 18:33:42.138
15.0, 31891.424285343208, 9283.037100200308, -28752.434701017704, -49568.65901573408, -782.512221635845, 19291.835342864437, -25011.400879788507, -2596.3115806951023, 0.032, 0.892, 0.402, 192.0, 1.0, 0.0, 27.0, 224.0, 12.0, 144.0, 0.0, 0.0, 0.0, 1.657492422138244E9, 0.0, 2022-07-10 18:33:42.138
16.0, 24334.366540237254, 8919.977715012756, -28384.86026345018, -51223.15749206037, 323.65325971284625, 9276.108059419163, -23976.69392546343, -5239.450066024073, 0.032, 0.892, 0.402, 192.0, 0.0, 0.0, 0.0, 0.0, 0.0, 0.0, 0.0, 0.0, 0.0, 1.657492422138254E9, 0.0, 2022-07-10 18:33:42.138
17.0, 17035.85142324584, 9358.27307203687, -27410.972405787994, -49905.49980467556, 1216.1584158132573, -1280.6879020557287, -23094.135295645632, -4990.898667681059, 0.032, 0.892, 0.402, 192.0, 0.0, 0.0, 0.0, 0.0, 0.0, 0.0, 0.0, 0.0, 0.0, 1.657492422138263E9, 0.0, 2022-07-10 18:33:42.138
0.0, 0.0, 0.0, 0.0, 0.0, 0.0, 0.0, 0.0, 0.0, -0.006, 0.918, 0.328, 192.0, 255.0, 208.0, 28.0, 176.0, 10.0, 64.0, 0.0, 0.0, 0.0, 1.657492422216827E9, 0.0, 2022-07-10 18:33:42.216
1.0, 29767.807396388936, 13404.31879810319, -24617.429032019263, -47993.9786188577, 4409.01570427605, 56154.3546503013, -21135.787205193905, 25319.184400938084, -0.006, 0.918, 0.328, 192.0, 0.0, 0.0, 0.0, 0.0, 0.0, 0.0, 0.0, 0.0, 0.0, 1.657492422224892E9, 0.0, 2022-07-10 18:33:42.224
2.0, 19914.532591644835, 13562.412686635576, -23552.05548430151, -48120.221271541275, 5851.440829210381, 35864.22334482949, -19670.27272823724, 17298.640882806885, -0.006, 0.918, 0.328, 192.0, 0.0, 0.0, 0.0, 0.0, 0.0, 0.0, 0.0, 0.0, 0.0, 1.657492422231137E9, 0.0, 2022-07-10 18:33:42.231
3.0, 20985.33761326523, 14122.279181752108, -23100.90787421559, -45395.47656720598, 5611.785425160579, 29768.299134766956, -19895.8465332802, 20085.009346605464, -0.006, 0.918, 0.328, 192.0, 0.0, 0.0, 0.0, 0.0, 0.0, 0.0, 0.0, 0.0, 0.0, 1.657492422231165E9, 0.0, 2022-07-10 18:33:42.231
4.0, 31331.133107082023, 14028.692427717737, -24159.888823019126, -44868.869467838944, 4069.6491682111227, 49946.42584877323, -21454.880709037865, 28772.528919283024, -0.006, 0.918, 0.328, 192.0, 0.0, 0.0, 0.0, 0.0, 0.0, 0.0, 0.0, 0.0, 0.0, 1.657492422239549E9, 0.0, 2022-07-10 18:33:42.239
5.0, 31262.401492881956, 13446.585946868176, -24704.913759817337, -47584.65112264766, 4173.651835161667, 58012.23164942642, -21367.46303647316, 26799.696898424256, -0.006, 0.918, 0.328, 192.0, 0.0, 0.0, 0.0, 0.0, 0.0, 0.0, 0.0, 0.0, 0.0, 1.657492422239569E9, 0.0, 2022-07-10 18:33:42.239
6.0, 21287.13086690079, 13496.072709092226, -23753.60116405501, -48383.05543459123, 5673.230370668218, 39583.97830533723, -19857.759160728358, 18180.618367268846, -0.006, 0.918, 0.328, 192.0, 0.0, 0.0, 0.0, 0.0, 0.0, 0.0, 0.0, 0.0, 0.0, 1.657492422247755E9, 0.0, 2022-07-10 18:33:42.247
7.0, 19679.347536486093, 14076.748678296648, -23061.837024907712, -45882.72224458722, 5817.376770660493, 28465.684171400568, -19702.99568211981, 18675.798913931718, -0.006, 0.918, 0.328, 192.0, 0.0, 0.0, 0.0, 0.0, 0.0, 0.0, 0.0, 0.0, 0.0, 1.657492422247801E9, 0.0, 2022-07-10 18:33:42.247
8.0, 29812.108553899358, 14112.533821169594, -23940.12647153455, -44633.840874891386, 4281.342539947336, 46057.334072272075, -21261.58282298837, 27687.687002144696, -0.022, 0.922, 0.28800000000000003, 192.0, 255.0, 80.0, 28.0, 208.0, 9.0, 0.0, 0.0, 0.0, 0.0, 1.657492422254149E9, 0.0, 2022-07-10 18:33:42.254
9.0, 32397.46777981136, 13527.029875162825, -24729.590085695992, -47104.781520936674, 3985.7183677814446, 58885.4472500619, -21558.302230632573, 28028.327587643576, -0.022, 0.922, 0.28800000000000003, 192.0, 0.0, 0.0, 0.0, 0.0, 0.0, 0.0, 0.0, 0.0, 0.0, 1.65749242225417E9, 0.0, 2022-07-10 18:33:42.254
10.0, 22966.97622143939, 13422.356655878622, -23974.771675440275, -48534.37674455366, 5428.791693304979, 43556.397385167766, -20112.479640541034, 19398.475515660706, -0.022, 0.922, 0.28800000000000003, 192.0, 0.0, 0.0, 0.0, 0.0, 0.0, 0.0, 0.0, 0.0, 0.0, 1.657492422261403E9, 0.0, 2022-07-10 18:33:42.261
11.0, 18805.48373526141, 13987.967549320168, -23077.86322568217, -46425.266137750885, 5970.083888779151, 28243.753700703826, -19563.34198276305, 17588.788877581224, -0.022, 0.922, 0.28800000000000003, 192.0, 0.0, 0.0, 0.0, 0.0, 0.0, 0.0, 0.0, 0.0, 0.0, 1.657492422261521E9, 0.0, 2022-07-10 18:33:42.261
12.0, 27937.065415032557, 14169.016679408156, -23713.12215484645, -44546.66907151569, 4558.28065374859, 41863.92329501192, -20968.52910143484, 26237.572877117742, -0.022, 0.922, 0.28800000000000003, 192.0, 0.0, 0.0, 0.0, 0.0, 0.0, 0.0, 0.0, 0.0, 0.0, 1.657492422269261E9, 0.0, 2022-07-10 18:33:42.269
13.0, 33070.03177047155, 13618.716730918495, -24697.425925424806, -46571.06656683285, 3867.7682122907895, 58687.209628487784, -21667.95988893031, 28940.949313753765, -0.022, 0.922, 0.28800000000000003, 192.0, 0.0, 0.0, 0.0, 0.0, 0.0, 0.0, 0.0, 0.0, 0.0, 1.657492422269307E9, 0.0, 2022-07-10 18:33:42.269
14.0, 24872.64125020996, 13368.935986630438, -24176.49616914942, -48538.89179693363, 5146.600919556728, 47634.0931813828, -20389.596568297933, 20910.481621084407, -0.022, 0.922, 0.28800000000000003, 192.0, 0.0, 0.0, 0.0, 0.0, 0.0, 0.0, 0.0, 0.0, 0.0, 1.65749242227677E9, 0.0, 2022-07-10 18:33:42.276
15.0, 18447.90052746541, 13840.758960337516, -23131.708578075002, -46955.740088908686, 6049.410229851035, 29169.33943859809, -19493.04574645111, 16910.525192084933, -0.022, 0.922, 0.28800000000000003, 192.0, 0.0, 0.0, 0.0, 0.0, 0.0, 0.0, 0.0, 0.0, 0.0, 1.657492422276804E9, 0.0, 2022-07-10 18:33:42.276
16.0, 25867.204471493304, 14201.136136190431, -23474.673744997235, -44602.77195009851, 4880.145773905012, 37692.327820340135, -20657.169301172413, 24527.060929186457, -0.022, 0.922, 0.28800000000000003, 192.0, 0.0, 0.0, 0.0, 0.0, 0.0, 0.0, 0.0, 0.0, 0.0, 1.657492422284019E9, 0.0, 2022-07-10 18:33:42.284
17.0, 33231.76899335015, 13760.382087276232, -24596.239578275632, -46016.989173530244, 3836.9898601758314, 57332.358638329344, -21718.698348843856, 29459.73330256144, -0.022, 0.922, 0.28800000000000003, 192.0, 0.0, 0.0, 0.0, 0.0, 0.0, 0.0, 0.0, 0.0, 0.0, 1.657492422291091E9, 0.0, 2022-07-10 18:33:42.291
18.0, 26842.522840800626, 13361.939890615928, -24369.68229647664, -48408.424664548, 4863.046689396702, 51350.40597324443, -20696.933054558405, 22581.4309813298, -0.03, 0.936, 0.274, 192.0, 255.0, 16.0, 29.0, 64.0, 8.0, 144.0, 0.0, 0.0, 0.0, 1.657492422291111E9, 0.0, 2022-07-10 18:33:42.291
19.0, 18646.92046009546, 13718.696083867084, -23270.937594287112, -47452.61936815016, 6042.883520470085, 31148.675817093354, -19497.739612786725, 16718.00961709137, -0.03, 0.936, 0.274, 192.0, 0.0, 0.0, 0.0, 0.0, 0.0, 0.0, 0.0, 0.0, 0.0, 1.657492422298482E9, 0.0, 2022-07-10 18:33:42.298
20.0, 23849.020761134718, 14193.0001012087, -23295.65862365468, -44812.63247878939, 5195.305370724842, 34120.29553893751, -20338.54518396201, 22769.297393476652, -0.03, 0.936, 0.274, 192.0, 0.0, 0.0, 0.0, 0.0, 0.0, 0.0, 0.0, 0.0, 0.0, 1.657492422298513E9, 0.0, 2022-07-10 18:33:42.298
21.0, 32851.27524748746, 13870.822056629904, -24458.105797541833, -45527.30715600338, 3881.581590364169, 55094.792556141925, -21662.215490605297, 29507.007242084415, -0.03, 0.936, 0.274, 192.0, 0.0, 0.0, 0.0, 0.0, 0.0, 0.0, 0.0, 0.0, 0.0, 1.657492422306531E9, 0.0, 2022-07-10 18:33:42.306
22.0, 28737.92841886621, 13380.067155369183, -24531.575981566428, -48150.82080970059, 4574.150392311859, 54554.84146533507, -20972.23949101442, 24269.99351620597, -0.03, 0.936, 0.274, 192.0, 0.0, 0.0, 0.0, 0.0, 0.0, 0.0, 0.0, 0.0, 0.0, 1.657492422306566E9, 0.0, 2022-07-10 18:33:42.306
23.0, 19459.629888490428, 13622.762396664906, -23443.649523693268, -47854.43667822322, 5924.061646945674, 34214.3740313499, -19609.40892808544, 17026.709559763618, -0.03, 0.936, 0.274, 192.0, 0.0, 0.0, 0.0, 0.0, 0.0, 0.0, 0.0, 0.0, 0.0, 1.657492422314523E9, 0.0, 2022-07-10 18:33:42.314
24.0, 21852.13826324204, 14145.32383028553, -23163.87273834619, -45209.93473648247, 5478.837249140412, 31105.089915405504, -20044.865613563732, 20915.264894397842, -0.03, 0.936, 0.274, 192.0, 0.0, 0.0, 0.0, 0.0, 0.0, 0.0, 0.0, 0.0, 0.0, 1.657492422314553E9, 0.0, 2022-07-10 18:33:42.314
25.0, 31659.9719715085, 13979.295072471508, -24243.75256821544, -45106.133235232024, 4019.8718333091538, 51287.798737025114, -21511.028291109596, 28876.688048444757, -0.03, 0.936, 0.274, 192.0, 0.0, 0.0, 0.0, 0.0, 0.0, 0.0, 0.0, 0.0, 0.0, 1.657492422321159E9, 0.0, 2022-07-10 18:33:42.321
26.0, 30722.763326497476, 13462.925072065005, -24645.614581777405, -47656.69079502711, 4263.818772294375, 57209.11111940278, -21279.575977274893, 26146.623628929097, -0.03, 0.936, 0.274, 192.0, 0.0, 0.0, 0.0, 0.0, 0.0, 0.0, 0.0, 0.0, 0.0, 1.657492422321178E9, 0.0, 2022-07-10 18:33:42.321
27.0, 21369.921728363246, 13559.10462845619, -23714.195038580303, -48164.23185637377, 5667.128344431919, 39345.41813676574, -19879.97679471693, 18196.13047792083, -0.03, 0.936, 0.274, 192.0, 0.0, 0.0, 0.0, 0.0, 0.0, 0.0, 0.0, 0.0, 0.0, 1.657492422329285E9, 0.0, 2022-07-10 18:33:42.329
28.0, 19709.075356611655, 14030.212346340699, -23121.784403536847, -45981.31578937957, 5793.080424437574, 28856.37031273488, -19741.306572116206, 18747.14568223306, -0.03, 0.9440000000000001, 0.27, 192.0, 255.0, 16.0, 29.0, 128.0, 8.0, 112.0, 0.0, 0.0, 0.0, 1.657492422329314E9, 0.0, 2022-07-10 18:33:42.329
29.0, 25980.974850770814, 13998.517572703073, -23798.70698436582, -45437.05081189285, 4756.138295666969, 38786.28924921623, -20773.756000251295, 24840.365331216497, -0.03, 0.9440000000000001, 0.27, 192.0, 0.0, 0.0, 0.0, 0.0, 0.0, 0.0, 0.0, 0.0, 0.0, 1.657492422338512E9, 0.0, 2022-07-10 18:33:42.338
30.0, 26994.358240885525, 13738.522081198942, -24152.378636882146, -46777.93196176672, 4671.179314992347, 43557.13499273479, -20867.342754285666, 24668.480416355185, -0.03, 0.9440000000000001, 0.27, 192.0, 0.0, 0.0, 0.0, 0.0, 0.0, 0.0, 0.0, 0.0, 0.0, 1.657492422338553E9, 0.0, 2022-07-10 18:33:42.338
31.0, 25085.63102312458, 13823.458710129109, -23848.596077990067, -46947.33583299349, 5111.86630867318, 39358.15863110526, -20431.595496129456, 22084.976385232974, -0.03, 0.9440000000000001, 0.27, 192.0, 0.0, 0.0, 0.0, 0.0, 0.0, 0.0, 0.0, 0.0, 0.0, 1.657492422344679E9, 0.0, 2022-07-10 18:33:42.344
32.0, 24779.434475831327, 13903.477955279108, -23667.010506035153, -46372.22544815844, 5175.524076881895, 36775.57102150572, -20349.16226257828, 22031.64512296261, -0.03, 0.9440000000000001, 0.27, 192.0, 0.0, 0.0, 0.0, 0.0, 0.0, 0.0, 0.0, 0.0, 0.0, 1.657492422351032E9, 0.0, 2022-07-10 18:33:42.351
33.0, 26432.52479225693, 13767.802866435393, -23903.4919623723, -46156.30759672017, 4800.171232243923, 40876.11030055408, -20723.978665349325, 24137.850002986193, -0.03, 0.9440000000000001, 0.27, 192.0, 0.0, 0.0, 0.0, 0.0, 0.0, 0.0, 0.0, 0.0, 0.0, 1.657492422351056E9, 0.0, 2022-07-10 18:33:42.351
34.0, 26837.158422131353, 13668.784638498384, -24079.66841216903, -46694.17997529268, 4730.232623843268, 43957.70060511835, -20812.625683859074, 24222.5184109829, -0.03, 0.9440000000000001, 0.27, 192.0, 0.0, 0.0, 0.0, 0.0, 0.0, 0.0, 0.0, 0.0, 0.0, 1.657492422358719E9, 0.0, 2022-07-10 18:33:42.358
35.0, 25322.939494006576, 13800.481116829053, -23870.970174189828, -46944.72067889222, 5078.5175059458625, 40570.2266776832, -20452.829653361994, 22196.6904040206, -0.03, 0.9440000000000001, 0.27, 192.0, 0.0, 0.0, 0.0, 0.0, 0.0, 0.0, 0.0, 0.0, 0.0, 1.657492422358755E9, 0.0, 2022-07-10 18:33:42.358
36.0, 24684.774838063102, 13915.279676351509, -23661.221404221225, -46480.16202213312, 5208.26938250892, 37090.99883925901, -20304.21290447866, 21748.761445136242, -0.03, 0.9440000000000001, 0.27, 192.0, 0.0, 0.0, 0.0, 0.0, 0.0, 0.0, 0.0, 0.0, 0.0, 1.657492422367143E9, 0.0, 2022-07-10 18:33:42.367
37.0, 26186.99087941538, 13795.630788282251, -23840.19182207487, -46129.46315162935, 4864.611311508574, 40236.4480777321, -20641.970114942804, 23782.27845219117, -0.026000000000000002, 0.9440000000000001, 0.266, 192.0, 255.0, 48.0, 29.0, 128.0, 8.0, 80.0, 0.0, 0.0, 0.0, 1.65749242236719E9, 0.0, 2022-07-10 18:33:42.367
38.0, 26998.917996754408, 13655.395943569654, -24076.025077822815, -46589.5961629863, 4689.597152423519, 44193.73502656639, -20828.78599510026, 24435.955218786625, -0.026000000000000002, 0.9440000000000001, 0.266, 192.0, 0.0, 0.0, 0.0, 0.0, 0.0, 0.0, 0.0, 0.0, 0.0, 1.657492422373314E9, 0.0, 2022-07-10 18:33:42.373
39.0, 25661.54607076002, 13729.447272950087, -23927.520087661756, -46971.63217921641, 4988.641141491073, 41750.912875045884, -20548.740988819718, 22535.945181363248, -0.026000000000000002, 0.9440000000000001, 0.266, 192.0, 0.0, 0.0, 0.0, 0.0, 0.0, 0.0, 0.0, 0.0, 0.0, 1.657492422373335E9, 0.0, 2022-07-10 18:33:42.373
40.0, 24685.490093885674, 13906.696606480671, -23663.948317044775, -46597.62043924576, 5215.623106434716, 37589.68860980137, -20318.719186630155, 21582.017431499655, -0.026000000000000002, 0.9440000000000001, 0.266, 192.0, 0.0, 0.0, 0.0, 0.0, 0.0, 0.0, 0.0, 0.0, 0.0, 1.657492422381374E9, 0.0, 2022-07-10 18:33:42.381
41.0, 25903.101373088524, 13852.180701754178, -23774.969431754285, -46134.9393290209, 4933.946422808936, 39602.28438404613, -20586.537788693644, 23377.10838044982, -0.026000000000000002, 0.9440000000000001, 0.266, 192.0, 0.0, 0.0, 0.0, 0.0, 0.0, 0.0, 0.0, 0.0, 0.0, 1.657492422381404E9, 0.0, 2022-07-10 18:33:42.381
42.0, 27036.468927439324, 13654.412466813621, -24069.6324789086, -46500.47975784299, 4659.243483453212, 44152.920741191, -20865.88989089607, 24526.859763486358, -0.026000000000000002, 0.9440000000000001, 0.266, 192.0, 0.0, 0.0, 0.0, 0.0, 0.0, 0.0, 0.0, 0.0, 0.0, 1.657492422390054E9, 0.0, 2022-07-10 18:33:42.390
43.0, 25982.740638582785, 13693.840944032783, -23982.103047621615, -46981.086967121, 4905.671466072973, 42808.73153313775, -20642.819481232105, 22885.749982088804, -0.026000000000000002, 0.9440000000000001, 0.266, 192.0, 0.0, 0.0, 0.0, 0.0, 0.0, 0.0, 0.0, 0.0, 0.0, 1.657492422390127E9, 0.0, 2022-07-10 18:33:42.390
44.0, 24743.224649813732, 13861.859007103325, -23713.59154148001, -46726.41119079723, 5180.508515895429, 38294.6402781773, -20369.055315143505, 21524.528744760602, -0.026000000000000002, 0.9440000000000001, 0.266, 192.0, 0.0, 0.0, 0.0, 0.0, 0.0, 0.0, 0.0, 0.0, 0.0, 1.657492422397798E9, 0.0, 2022-07-10 18:33:42.397
45.0, 25625.69387265371, 13845.631640628773, -23756.663353045387, -46199.91585015248, 4983.522592010808, 39086.24965980645, -20529.339674632512, 22953.87809918858, -0.026000000000000002, 0.9440000000000001, 0.266, 192.0, 0.0, 0.0, 0.0, 0.0, 0.0, 0.0, 0.0, 0.0, 0.0, 1.657492422397817E9, 0.0, 2022-07-10 18:33:42.397
46.0, 26994.380592629983, 13683.514438094431, -24045.71611234142, -46412.123312011165, 4674.599131894009, 43880.22945883626, -20826.2155444879, 24502.1834376077, -0.026000000000000002, 0.9440000000000001, 0.266, 192.0, 0.0, 0.0, 0.0, 0.0, 0.0, 0.0, 0.0, 0.0, 0.0, 1.657492422404474E9, 0.0, 2022-07-10 18:33:42.404
47.0, 26289.71949693197, 13687.627159074207, -24026.583019087677, -46940.987937568185, 4850.507360757275, 43740.75457343514, -20671.09443796807, 23251.022189977433, -0.024, 0.9400000000000001, 0.272, 192.0, 255.0, 64.0, 29.0, 96.0, 8.0, 128.0, 0.0, 0.0, 0.0, 1.657492422411121E9, 0.0, 2022-07-10 18:33:42.411
48.0, 24847.003799319722, 13859.266204746511, -23740.32422784856, -46815.92992734074, 5188.59984738825, 39130.34965161677, -20336.600582194398, 21555.150634664373, -0.024, 0.9400000000000001, 0.272, 192.0, 0.0, 0.0, 0.0, 0.0, 0.0, 0.0, 0.0, 0.0, 0.0, 1.65749242241115E9, 0.0, 2022-07-10 18:33:42.411
49.0, 25330.40497665465, 13888.032899860491, -23702.84035239701, -46243.32293788468, 5071.186133764521, 38629.2682444177, -20448.76163587113, 22535.967533107705, -0.024, 0.9400000000000001, 0.272, 192.0, 0.0, 0.0, 0.0, 0.0, 0.0, 0.0, 0.0, 0.0, 0.0, 1.657492422420671E9, 0.0, 2022-07-10 18:33:42.420
50.0, 26882.979498264733, 13700.702929580562, -23999.604463530122, -46304.70082815896, 4706.562126465097, 43388.893412219695, -20819.152393240023, 24393.77747699946, -0.024, 0.9400000000000001, 0.272, 192.0, 0.0, 0.0, 0.0, 0.0, 0.0, 0.0, 0.0, 0.0, 0.0, 1.657492422420718E9, 0.0, 2022-07-10 18:33:42.420
51.0, 26569.920965423702, 13631.278411302377, -24068.894871341574, -46877.55368680402, 4779.942903511871, 44479.16680326066, -20760.63552625603, 23604.135048882374, -0.024, 0.9400000000000001, 0.272, 192.0, 0.0, 0.0, 0.0, 0.0, 0.0, 0.0, 0.0, 0.0, 0.0, 1.657492422427595E9, 0.0, 2022-07-10 18:33:42.427
52.0, 25045.19671740493, 13791.316901602377, -23799.95868205532, -46898.899602758844, 5128.361896081197, 40119.34728853074, -20416.016330244103, 21699.587607334568, -0.024, 0.9400000000000001, 0.272, 192.0, 0.0, 0.0, 0.0, 0.0, 0.0, 0.0, 0.0, 0.0, 0.0, 1.657492422427641E9, 0.0, 2022-07-10 18:33:42.427
53.0, 25112.274302515307, 13878.019318344514, -23687.6411661674, -46338.54136926429, 5118.34831456522, 38404.67791613077, -20430.65672286233, 22158.133644835194, -0.024, 0.9400000000000001, 0.272, 192.0, 0.0, 0.0, 0.0, 0.0, 0.0, 0.0, 0.0, 0.0, 0.0, 1.657492422433963E9, 0.0, 2022-07-10 18:33:42.433
54.0, 26708.166504879777, 13734.85639510827, -23945.69205590392, -46229.308394111205, 4746.7505629957395, 42767.58197159552, -20798.78995404124, 24174.953898782005, -0.024, 0.9400000000000001, 0.272, 192.0, 0.0, 0.0, 0.0, 0.0, 0.0, 0.0, 0.0, 0.0, 0.0, 1.657492422434007E9, 0.0, 2022-07-10 18:33:42.434
55.0, 26798.266386779116, 13638.609783483718, -24079.154322046557, -46784.391615914305, 4736.4240570573875, 44975.8672685465, -20823.935666553458, 23884.87295924103, -0.024, 0.9400000000000001, 0.272, 192.0, 0.0, 0.0, 0.0, 0.0, 0.0, 0.0, 0.0, 0.0, 0.0, 1.657492422442032E9, 0.0, 2022-07-10 18:33:42.442
56.0, 25279.91238593011, 13773.122581615757, -23835.25208655025, -46935.57881541, 5097.896468388613, 41101.01355326337, -20462.10562731095, 21892.639624195057, -0.024, 0.9400000000000001, 0.272, 192.0, 0.0, 0.0, 0.0, 0.0, 0.0, 0.0, 0.0, 0.0, 0.0, 1.657492422442076E9, 0.0, 2022-07-10 18:33:42.442
57.0, 24948.391312168995, 13882.780239913493, -23667.457540924257, -46414.783169601345, 5165.443440132552, 38351.95015096071, -20367.89302443183, 21857.74855110032, -0.018000000000000002, 0.9420000000000001, 0.268, 192.0, 255.0, 112.0, 29.0, 112.0, 8.0, 96.0, 0.0, 0.0, 0.0, 1.657492422448839E9, 0.0, 2022-07-10 18:33:42.448
58.0, 26471.75210377599, 13766.305299556889, -23895.624148324034, -46172.49025970582, 4804.038084034692, 42056.483573494384, -20728.85134564058, 23905.838895540106, -0.018000000000000002, 0.9420000000000001, 0.268, 192.0, 0.0, 0.0, 0.0, 0.0, 0.0, 0.0, 0.0, 0.0, 0.0, 1.657492422448943E9, 0.0, 2022-07-10 18:33:42.448
59.0, 26949.073606619073, 13651.864367945716, -24085.882197127605, -46676.455041939626, 4702.628219440963, 45258.974463817416, -20848.567288943206, 24144.82374725625, -0.018000000000000002, 0.9420000000000001, 0.268, 192.0, 0.0, 0.0, 0.0, 0.0, 0.0, 0.0, 0.0, 0.0, 0.0, 1.657492422456941E9, 0.0, 2022-07-10 18:33:42.456
60.0, 25530.788365696477, 13776.274177583955, -23881.74371501729, -46954.57779819701, 5040.228967693922, 42134.91584478806, -20514.743985503195, 22189.381383583714, -0.018000000000000002, 0.9420000000000001, 0.268, 192.0, 0.0, 0.0, 0.0, 0.0, 0.0, 0.0, 0.0, 0.0, 0.0, 1.657492422457055E9, 0.0, 2022-07-10 18:33:42.457
61.0, 24833.2127729908, 13907.456565792152, -23666.16113974585, -46516.282441172894, 5191.773795100903, 38525.019708278145, -20363.17680635176, 21635.549859470113, -0.018000000000000002, 0.9420000000000001, 0.268, 192.0, 0.0, 0.0, 0.0, 0.0, 0.0, 0.0, 0.0, 0.0, 0.0, 1.657492422463437E9, 0.0, 2022-07-10 18:33:42.463
62.0, 26195.9315771975, 13803.453898841608, -23839.34245578557, -46147.590416382605, 4860.520942273252, 41304.86146269578, -20690.719269599827, 23568.03698158705, -0.018000000000000002, 0.9420000000000001, 0.268, 192.0, 0.0, 0.0, 0.0, 0.0, 0.0, 0.0, 0.0, 0.0, 0.0, 1.657492422463457E9, 0.0, 2022-07-10 18:33:42.463
63.0, 27054.797357892676, 13659.173388382602, -24079.511949957843, -46572.98881685601, 4668.005367279693, 45299.386417792615, -20870.51670199832, 24315.367557450245, -0.018000000000000002, 0.9420000000000001, 0.268, 192.0, 0.0, 0.0, 0.0, 0.0, 0.0, 0.0, 0.0, 0.0, 0.0, 1.657492422472848E9, 0.0, 2022-07-10 18:33:42.472
64.0, 25843.44456713731, 13734.208194519068, -23940.148823279003, -46973.44267051729, 4963.428373745486, 43165.64418860009, -20579.16171302339, 22528.07736731498, -0.018000000000000002, 0.9420000000000001, 0.268, 192.0, 0.0, 0.0, 0.0, 0.0, 0.0, 0.0, 0.0, 0.0, 0.0, 1.657492422478747E9, 0.0, 2022-07-10 18:33:42.478
65.0, 24812.023319247168, 13886.021242859513, -23679.706296885764, -46635.14901818622, 5213.298525011364, 38945.590131949204, -20341.920297374763, 21495.20325603524, -0.018000000000000002, 0.9420000000000001, 0.268, 192.0, 0.0, 0.0, 0.0, 0.0, 0.0, 0.0, 0.0, 0.0, 0.0, 1.657492422478789E9, 0.0, 2022-07-10 18:33:42.478
66.0, 25905.98474812326, 13835.68511434616, -23786.882911548964, -46169.78569862672, 4934.013478042302, 40581.91664003333, -20611.92937039487, 23161.168177267096, -0.018000000000000002, 0.9420000000000001, 0.268, 192.0, 0.0, 0.0, 0.0, 0.0, 0.0, 0.0, 0.0, 0.0, 0.0, 1.657492422486027E9, 0.0, 2022-07-10 18:33:42.486
67.0, 27067.157872576463, 13693.036281232391, -24062.926955572006, -46477.74803373194, 4663.155038732892, 45110.15654923398, -20889.51568478533, 24384.72502049506, -0.022, 0.9460000000000001, 0.268, 192.0, 255.0, 80.0, 29.0, 144.0, 8.0, 96.0, 0.0, 0.0, 0.0, 1.657492422486073E9, 0.0, 2022-07-10 18:33:42.486
68.0, 26122.97548329538, 13725.155738014668, -24001.92904495347, -46969.06172860405, 4887.924180975459, 44101.757598132805, -20678.917548527428, 22875.1999587059, -0.022, 0.9460000000000001, 0.268, 192.0, 0.0, 0.0, 0.0, 0.0, 0.0, 0.0, 0.0, 0.0, 0.0, 1.65749242249407E9, 0.0, 2022-07-10 18:33:42.494
69.0, 24841.661732394903, 13867.916329850714, -23732.545820778112, -46751.24397888708, 5188.465736921517, 39581.16198553586, -20360.785169695042, 21454.120749726386, -0.022, 0.9460000000000001, 0.268, 192.0, 0.0, 0.0, 0.0, 0.0, 0.0, 0.0, 0.0, 0.0, 0.0, 1.657492422494097E9, 0.0, 2022-07-10 18:33:42.494
70.0, 25588.96995651364, 13841.384809182264, -23766.341658394536, -46229.241338877844, 4995.100795638657, 39989.10367358967, -20540.49319511571, 22753.807634569126, -0.022, 0.9460000000000001, 0.268, 192.0, 0.0, 0.0, 0.0, 0.0, 0.0, 0.0, 0.0, 0.0, 0.0, 1.657492422502484E9, 0.0, 2022-07-10 18:33:42.502
71.0, 26985.797522759145, 13695.025586488913, -24053.09218801167, -46397.66173334858, 4672.453364426299, 44705.925250759756, -20885.13474287209, 24349.789243911415, -0.022, 0.9460000000000001, 0.268, 192.0, 0.0, 0.0, 0.0, 0.0, 0.0, 0.0, 0.0, 0.0, 0.0, 1.657492422502511E9, 0.0, 2022-07-10 18:33:42.502
72.0, 26385.921405067613, 13686.621330573718, -24057.09315026917, -46932.09194327497, 4822.075941810124, 44873.60803766347, -20725.409176994464, 23227.44109957708, -0.022, 0.9460000000000001, 0.268, 192.0, 0.0, 0.0, 0.0, 0.0, 0.0, 0.0, 0.0, 0.0, 0.0, 1.657492422508819E9, 0.0, 2022-07-10 18:33:42.508
73.0, 24957.153195995474, 13848.22444298559, -23789.788638328155, -46855.31370107099, 5144.052820688823, 40370.625599697305, -20415.569295355, 21506.64734919636, -0.022, 0.9460000000000001, 0.268, 192.0, 0.0, 0.0, 0.0, 0.0, 0.0, 0.0, 0.0, 0.0, 0.0, 1.657492422508917E9, 0.0, 2022-07-10 18:33:42.508
74.0, 25318.335034648782, 13889.374004527808, -23726.98023640874, -46297.36945597762, 5063.586540649717, 39524.32149938602, -20482.95980488775, 22336.679379544184, -0.022, 0.9460000000000001, 0.268, 192.0, 0.0, 0.0, 0.0, 0.0, 0.0, 0.0, 0.0, 0.0, 0.0, 1.657492422516602E9, 0.0, 2022-07-10 18:33:42.516
75.0, 26861.74534103219, 13705.262685449445, -24004.343033354646, -46299.53757518978, 4707.679713687863, 44139.97908115138, -20825.70145436543, 24242.23264959248, -0.022, 0.9460000000000001, 0.268, 192.0, 0.0, 0.0, 0.0, 0.0, 0.0, 0.0, 0.0, 0.0, 0.0, 1.657492422516634E9, 0.0, 2022-07-10 18:33:42.516
76.0, 26644.687550626702, 13645.717638220507, -24086.53039771681, -46869.685872755756, 4764.721365537806, 45503.25667896947, -20771.63258452804, 23590.165208597806, -0.022, 0.9460000000000001, 0.268, 192.0, 0.0, 0.0, 0.0, 0.0, 0.0, 0.0, 0.0, 0.0, 0.0, 1.657492422524581E9, 0.0, 2022-07-10 18:33:42.524
77.0, 25133.217887069928, 13806.11375643179, -23825.842002134563, -46922.65950711483, 5123.153939623111, 41288.63409622122, -20418.22915294518, 21696.52541834419, -0.022, 0.9440000000000001, 0.27, 192.0, 255.0, 80.0, 29.0, 128.0, 8.0, 112.0, 0.0, 0.0, 0.0, 1.657492422524602E9, 0.0, 2022-07-10 18:33:42.524
78.0, 25084.647546368546, 13897.733556954094, -23695.173704048837, -46378.3945296281, 5130.842939715736, 39285.0237232475, -20410.003710985628, 22019.46342223447, -0.022, 0.9440000000000001, 0.27, 192.0, 0.0, 0.0, 0.0, 0.0, 0.0, 0.0, 0.0, 0.0, 0.0, 1.65749242253185E9, 0.0, 2022-07-10 18:33:42.531
79.0, 26652.756530375067, 13745.540528957908, -23953.87279437456, -46237.53383607076, 4752.629071787485, 43459.569628187375, -20786.116514935078, 24050.52173739931, -0.022, 0.9440000000000001, 0.27, 192.0, 0.0, 0.0, 0.0, 0.0, 0.0, 0.0, 0.0, 0.0, 0.0, 1.65749242253826E9, 0.0, 2022-07-10 18:33:42.538
80.0, 26829.06709063853, 13634.720579948495, -24099.226188567423, -46788.571392127444, 4728.913870920404, 45886.27617195561, -20823.063948519703, 23888.605700565065, -0.022, 0.9440000000000001, 0.27, 192.0, 0.0, 0.0, 0.0, 0.0, 0.0, 0.0, 0.0, 0.0, 0.0, 1.65749242253828E9, 0.0, 2022-07-10 18:33:42.538
81.0, 25353.40492169916, 13770.172151347657, -23867.52800554371, -46969.508763493155, 5078.67396815705, 42224.83691273176, -20483.228025821212, 21933.118633403617, -0.022, 0.9440000000000001, 0.27, 192.0, 0.0, 0.0, 0.0, 0.0, 0.0, 0.0, 0.0, 0.0, 0.0, 1.657492422546236E9, 0.0, 2022-07-10 18:33:42.546
82.0, 24928.92294274842, 13885.75302192605, -23691.30685225807, -46486.46521406952, 5163.431783131574, 39267.90228699473, -20387.160228152305, 21763.40183775447, -0.022, 0.9440000000000001, 0.27, 192.0, 0.0, 0.0, 0.0, 0.0, 0.0, 0.0, 0.0, 0.0, 0.0, 1.657492422546267E9, 0.0, 2022-07-10 18:33:42.546
83.0, 26407.02145183342, 13758.929223886636, -23897.97108149184, -46205.682600221946, 4820.958354587359, 42694.53647071558, -20736.652104455487, 23765.581699083057, -0.022, 0.9440000000000001, 0.27, 192.0, 0.0, 0.0, 0.0, 0.0, 0.0, 0.0, 0.0, 0.0, 0.0, 1.657492422554546E9, 0.0, 2022-07-10 18:33:42.554
84.0, 26977.281508121672, 13620.750739663928, -24106.646967726585, -46696.19163229366, 4695.475661215265, 46060.463316495814, -20859.94432687096, 24123.85781095717, -0.022, 0.9440000000000001, 0.27, 192.0, 0.0, 0.0, 0.0, 0.0, 0.0, 0.0, 0.0, 0.0, 0.0, 1.657492422554568E9, 0.0, 2022-07-10 18:33:42.554
85.0, 25619.21186676167, 13730.877784595226, -23929.97877955184, -47009.22781339024, 5016.044380193279, 43210.146511810606, -20540.224974182245, 22234.64366610571, -0.022, 0.9440000000000001, 0.27, 192.0, 0.0, 0.0, 0.0, 0.0, 0.0, 0.0, 0.0, 0.0, 0.0, 1.657492422560831E9, 0.0, 2022-07-10 18:33:42.560
86.0, 24837.504307926218, 13875.27005377651, -23705.343747776, -46606.538785283425, 5187.571667143306, 39467.10103358043, -20366.149588364315, 21563.30902139056, -0.022, 0.9440000000000001, 0.27, 192.0, 0.0, 0.0, 0.0, 0.0, 0.0, 0.0, 0.0, 0.0, 0.0, 1.657492422560853E9, 0.0, 2022-07-10 18:33:42.560
87.0, 26109.251512199822, 13788.075898656358, -23848.171394845416, -46200.74286469733, 4885.465489085375, 41897.67442913943, -20647.960382456826, 23409.58546514338, -0.028, 0.9420000000000001, 0.272, 192.0, 255.0, 32.0, 29.0, 112.0, 8.0, 128.0, 0.0, 0.0, 0.0, 1.657492422568905E9, 0.0, 2022-07-10 18:33:42.568
88.0, 27049.656456667955, 13645.047085886847, -24094.778191420817, -46585.93047689563, 4676.2531609837015, 46006.97559201427, -20855.205757046435, 24299.98955726499, -0.028, 0.9420000000000001, 0.272, 192.0, 0.0, 0.0, 0.0, 0.0, 0.0, 0.0, 0.0, 0.0, 0.0, 1.657492422568928E9, 0.0, 2022-07-10 18:33:42.568
89.0, 25918.769945951695, 13715.924467554625, -23978.95145165342, -47010.09953142399, 4944.965832825403, 44167.807002998234, -20597.110163821002, 22598.083030949, -0.028, 0.9420000000000001, 0.272, 192.0, 0.0, 0.0, 0.0, 0.0, 0.0, 0.0, 0.0, 0.0, 0.0, 1.657492422576871E9, 0.0, 2022-07-10 18:33:42.576
90.0, 24825.479069409263, 13877.728745666594, -23717.190172337316, -46705.892289387266, 5199.663960893627, 39876.51793676829, -20346.480053243646, 21468.224700477684, -0.028, 0.9420000000000001, 0.272, 192.0, 0.0, 0.0, 0.0, 0.0, 0.0, 0.0, 0.0, 0.0, 0.0, 1.657492422576892E9, 0.0, 2022-07-10 18:33:42.576
91.0, 25816.555418557575, 13838.903765547726, -23799.221074488294, -46218.06546665019, 4946.843379359649, 41164.872487172186, -20612.912847150907, 23027.84002159119, -0.028, 0.9420000000000001, 0.272, 192.0, 0.0, 0.0, 0.0, 0.0, 0.0, 0.0, 0.0, 0.0, 0.0, 1.657492422584099E9, 0.0, 2022-07-10 18:33:42.584
92.0, 27049.052959567663, 13657.698173248551, -24080.00368833586, -46485.01235067992, 4660.785753820629, 45716.64878328428, -20902.77026924733, 24342.368464752253, -0.028, 0.9420000000000001, 0.272, 192.0, 0.0, 0.0, 0.0, 0.0, 0.0, 0.0, 0.0, 0.0, 0.0, 1.657492422584129E9, 0.0, 2022-07-10 18:33:42.584
93.0, 26204.55935055725, 13668.225844887, -24034.00379824684, -46987.457214290764, 4863.873703941548, 45013.5746614426, -20682.739696829285, 22944.803290939726, -0.028, 0.9420000000000001, 0.272, 192.0, 0.0, 0.0, 0.0, 0.0, 0.0, 0.0, 0.0, 0.0, 0.0, 1.657492422590502E9, 0.0, 2022-07-10 18:33:42.590
94.0, 24872.037753109667, 13838.54613763644, -23762.45245485931, -46808.06211329247, 5175.412318159619, 40508.312345542, -20357.387704537836, 21451.617354347392, -0.028, 0.9420000000000001, 0.272, 192.0, 0.0, 0.0, 0.0, 0.0, 0.0, 0.0, 0.0, 0.0, 0.0, 1.657492422598592E9, 0.0, 2022-07-10 18:33:42.598
95.0, 25523.546400492956, 13857.36630646781, -23758.250326901714, -46258.320958414195, 5035.110418213656, 40578.65328534285, -20497.01905215014, 22628.77197608614, -0.028, 0.9420000000000001, 0.272, 192.0, 0.0, 0.0, 0.0, 0.0, 0.0, 0.0, 0.0, 0.0, 0.0, 1.657492422598624E9, 0.0, 2022-07-10 18:33:42.598
96.0, 26968.58667952856, 13690.868162020226, -24046.09609199716, -46382.08256746323, 4691.251181513212, 45257.38748996109, -20847.89673660955, 24307.030356768413, -0.028, 0.9420000000000001, 0.272, 192.0, 0.0, 0.0, 0.0, 0.0, 0.0, 0.0, 0.0, 0.0, 0.0, 1.657492422606677E9, 0.0, 2022-07-10 18:33:42.606
97.0, 26463.727827516537, 13660.46978956101, -24074.32634524421, -46930.147341507356, 4815.19160451789, 45697.20276560817, -20730.997113108293, 23300.75482139049, -0.034, 0.9480000000000001, 0.274, 192.0, 254.0, 240.0, 29.0, 160.0, 8.0, 144.0, 0.0, 0.0, 0.0, 1.657492422606698E9, 0.0, 2022-07-10 18:33:42.606
98.0, 25001.94609188391, 13836.869756802293, -23788.671051105386, -46870.937570445254, 5166.561027355317, 41226.473894891016, -20383.226321128168, 21533.044759398075, -0.034, 0.9480000000000001, 0.274, 192.0, 0.0, 0.0, 0.0, 0.0, 0.0, 0.0, 0.0, 0.0, 0.0, 1.657492422613667E9, 0.0, 2022-07-10 18:33:42.613
99.0, 25275.19616785004, 13884.054289347445, -23714.016224624662, -46306.24309852637, 5094.767224164871, 40104.70689591252, -20453.14257778437, 22265.824349620863, -0.034, 0.9480000000000001, 0.274, 192.0, 0.0, 0.0, 0.0, 0.0, 0.0, 0.0, 0.0, 0.0, 0.0, 1.657492422613686E9, 0.0, 2022-07-10 18:33:42.613
100.0, 26838.07484365402, 13719.120767011735, -23997.324585595677, -46288.58522040668, 4725.426998785377, 44620.340421240384, -20819.755890340315, 24191.538893167843, -0.034, 0.9480000000000001, 0.274, 192.0, 0.0, 0.0, 0.0, 0.0, 0.0, 0.0, 0.0, 0.0, 0.0, 1.657492422621343E9, 0.0, 2022-07-10 18:33:42.621
101.0, 26714.357938093894, 13676.048955446358, -24083.19998779297, -46846.61887247788, 4769.057603962136, 46214.80211195971, -20780.774448010263, 23634.600476574957, -0.034, 0.9480000000000001, 0.274, 192.0, 0.0, 0.0, 0.0, 0.0, 0.0, 0.0, 0.0, 0.0, 0.0, 1.657492422621388E9, 0.0, 2022-07-10 18:33:42.621
102.0, 25196.763896556367, 13822.944620006636, -23829.306522525138, -46930.25910022964, 5124.763265223893, 42101.164710660545, -20431.148461240347, 21710.11527897302, -0.034, 0.9480000000000001, 0.274, 192.0, 0.0, 0.0, 0.0, 0.0, 0.0, 0.0, 0.0, 0.0, 0.0, 1.657492422629071E9, 0.0, 2022-07-10 18:33:42.629
103.0, 25058.697171055934, 13910.22818210461, -23699.55464596208, -46404.38960842963, 5136.073247918278, 39851.12635506706, -20410.13782145236, 21929.43059556849, -0.034, 0.9480000000000001, 0.274, 192.0, 0.0, 0.0, 0.0, 0.0, 0.0, 0.0, 0.0, 0.0, 0.0, 1.657492422629109E9, 0.0, 2022-07-10 18:33:42.629
104.0, 26614.69150956768, 13777.905854929193, -23931.990436552816, -46221.395876574024, 4777.081880221592, 43820.10326625148, -20768.54804379321, 23943.59099192512, -0.034, 0.9480000000000001, 0.274, 192.0, 0.0, 0.0, 0.0, 0.0, 0.0, 0.0, 0.0, 0.0, 0.0, 1.657492422639109E9, 0.0, 2022-07-10 18:33:42.639
105.0, 26908.9522253218, 13672.539731566874, -24088.85497914016, -46743.264406116534, 4727.1480831084355, 46503.05020845535, -20828.428367188975, 23920.859267814074, -0.034, 0.9480000000000001, 0.274, 192.0, 0.0, 0.0, 0.0, 0.0, 0.0, 0.0, 0.0, 0.0, 0.0, 1.657492422639128E9, 0.0, 2022-07-10 18:33:42.639
106.0, 25471.24331846754, 13799.92232321767, -23882.078991184117, -46964.4349175018, 5065.084107528223, 43062.28972223875, -20499.29893008458, 21982.06895376074, -0.034, 0.9480000000000001, 0.274, 192.0, 0.0, 0.0, 0.0, 0.0, 0.0, 0.0, 0.0, 0.0, 0.0, 1.657492422645814E9, 0.0, 2022-07-10 18:33:42.645
107.0, 24928.051224714665, 13908.484746037097, -23695.01724183765, -46504.83834801178, 5169.913789023613, 39851.84161088963, -20396.994995712637, 21663.444836550338, -0.034, 0.9440000000000001, 0.272, 192.0, 254.0, 240.0, 29.0, 128.0, 8.0, 128.0, 0.0, 0.0, 0.0, 1.657492422645853E9, 0.0, 2022-07-10 18:33:42.645
108.0, 26354.807776785827, 13791.2051428801, -23883.464799340345, -46187.68944593542, 4826.546290701186, 43012.780608270245, -20726.124432817036, 23634.466366108223, -0.034, 0.9440000000000001, 0.272, 192.0, 0.0, 0.0, 0.0, 0.0, 0.0, 0.0, 0.0, 0.0, 0.0, 1.657492422651931E9, 0.0, 2022-07-10 18:33:42.651
109.0, 27023.169639488417, 13654.837149958272, -24097.661566455554, -46652.31515792789, 4684.523306432165, 46588.925610652645, -20859.69845768195, 24132.083252916724, -0.034, 0.9440000000000001, 0.272, 192.0, 0.0, 0.0, 0.0, 0.0, 0.0, 0.0, 0.0, 0.0, 0.0, 1.657492422659105E9, 0.0, 2022-07-10 18:33:42.659
110.0, 25728.109565747927, 13768.540474002419, -23926.044872527706, -46987.52426952413, 5004.913211454536, 43976.073739060615, -20543.24245968371, 22286.164437075193, -0.034, 0.9440000000000001, 0.272, 192.0, 0.0, 0.0, 0.0, 0.0, 0.0, 0.0, 0.0, 0.0, 0.0, 1.657492422659131E9, 0.0, 2022-07-10 18:33:42.659
111.0, 24852.90465985592, 13912.977446672612, -23689.853988868475, -46610.517395796465, 5205.788338874381, 40041.294996892815, -20346.256535799093, 21493.035136823077, -0.034, 0.9440000000000001, 0.272, 192.0, 0.0, 0.0, 0.0, 0.0, 0.0, 0.0, 0.0, 0.0, 0.0, 1.657492422665876E9, 0.0, 2022-07-10 18:33:42.665
112.0, 26061.642296510017, 13825.962105508102, -23829.23946729177, -46190.59517271462, 4909.135986463545, 42189.4093977701, -20637.902097451937, 23284.728620616035, -0.034, 0.9440000000000001, 0.272, 192.0, 0.0, 0.0, 0.0, 0.0, 0.0, 0.0, 0.0, 0.0, 0.0, 1.657492422665895E9, 0.0, 2022-07-10 18:33:42.665
113.0, 27074.01985812424, 13682.84388576077, -24089.413772751544, -46553.900427091176, 4677.303692973101, 46422.18159701605, -20878.965661402424, 24274.799141263862, -0.034, 0.9440000000000001, 0.272, 192.0, 0.0, 0.0, 0.0, 0.0, 0.0, 0.0, 0.0, 0.0, 0.0, 1.6574924226737E9, 0.0, 2022-07-10 18:33:42.673
114.0, 26008.0875167951, 13737.00216257598, -23984.22646334487, -46988.88772593591, 4937.410943199509, 44855.54782814358, -20631.64360900445, 22640.81956634755, -0.034, 0.9440000000000001, 0.272, 192.0, 0.0, 0.0, 0.0, 0.0, 0.0, 0.0, 0.0, 0.0, 0.0, 1.657492422673779E9, 0.0, 2022-07-10 18:33:42.673
115.0, 24863.83466289457, 13890.46924000612, -23721.83933518402, -46715.92822264769, 5204.737806884981, 40499.326944270964, -20355.64426847032, 21423.76708075608, -0.034, 0.9440000000000001, 0.272, 192.0, 0.0, 0.0, 0.0, 0.0, 0.0, 0.0, 0.0, 0.0, 0.0, 1.657492422681337E9, 0.0, 2022-07-10 18:33:42.681
116.0, 25778.780970428106, 13872.476085719596, -23776.04231548814, -46209.2588793348, 4989.043472891268, 41466.91160999675, -20576.16657926638, 22886.845217567115, -0.034, 0.9440000000000001, 0.272, 192.0, 0.0, 0.0, 0.0, 0.0, 0.0, 0.0, 0.0, 0.0, 0.0, 1.657492422681363E9, 0.0, 2022-07-10 18:33:42.681
117.0, 27066.509671987256, 13704.2345052045, -24055.684990368485, -46433.42452447707, 4691.944085591327, 46060.26215079572, -20865.666373451517, 24303.811705566848, -0.034, 0.9420000000000001, 0.268, 192.0, 254.0, 240.0, 29.0, 112.0, 8.0, 96.0, 0.0, 0.0, 0.0, 1.657492422689412E9, 0.0, 2022-07-10 18:33:42.689
118.0, 26304.650462228117, 13729.782549116917, -24024.928989997985, -46944.273644003115, 4879.676387271451, 45631.84626482085, -20671.921452512917, 23002.35903291214, -0.034, 0.9420000000000001, 0.268, 192.0, 0.0, 0.0, 0.0, 0.0, 0.0, 0.0, 0.0, 0.0, 0.0, 1.657492422689462E9, 0.0, 2022-07-10 18:33:42.689
119.0, 24940.478794631817, 13878.376946255798, -23742.78291973864, -46791.11949099535, 5192.556106156839, 41099.493634640414, -20358.058256871493, 21440.843813519932, -0.034, 0.9420000000000001, 0.268, 192.0, 0.0, 0.0, 0.0, 0.0, 0.0, 0.0, 0.0, 0.0, 0.0, 1.657492422696034E9, 0.0, 2022-07-10 18:33:42.696
120.0, 25490.845798354843, 13893.799649929959, -23718.374814793446, -46240.26074889431, 5049.057906753767, 40832.256177932766, -20496.460258538755, 22501.143515246335, -0.034, 0.9420000000000001, 0.268, 192.0, 0.0, 0.0, 0.0, 0.0, 0.0, 0.0, 0.0, 0.0, 0.0, 1.657492422696092E9, 0.0, 2022-07-10 18:33:42.696
121.0, 26971.96179294131, 13735.750464886483, -23995.692908250443, -46320.54821497777, 4713.669981201885, 45470.39961462017, -20826.50611716582, 24253.408521820133, -0.034, 0.9420000000000001, 0.268, 192.0, 0.0, 0.0, 0.0, 0.0, 0.0, 0.0, 0.0, 0.0, 0.0, 1.657492422704235E9, 0.0, 2022-07-10 18:33:42.704
122.0, 26568.713971223115, 13703.586304615297, -24038.295333182257, -46871.18343963426, 4828.647354679984, 46239.925472727475, -20721.139993803503, 23373.62150831479, -0.034, 0.9420000000000001, 0.268, 192.0, 0.0, 0.0, 0.0, 0.0, 0.0, 0.0, 0.0, 0.0, 0.0, 1.657492422704283E9, 0.0, 2022-07-10 18:33:42.704
123.0, 25093.431781939482, 13850.213748242111, -23774.455341631812, -46862.08627964095, 5166.493972121951, 41874.07098699462, -20378.286585603546, 21569.165178437852, -0.034, 0.9420000000000001, 0.268, 192.0, 0.0, 0.0, 0.0, 0.0, 0.0, 0.0, 0.0, 0.0, 0.0, 1.657492422711114E9, 0.0, 2022-07-10 18:33:42.711
124.0, 25250.85511813821, 13905.422557046719, -23685.294232999593, -46316.30138353126, 5120.4270267995635, 40412.19984438418, -20423.504164636634, 22142.66623767212, -0.034, 0.9420000000000001, 0.268, 192.0, 0.0, 0.0, 0.0, 0.0, 0.0, 0.0, 0.0, 0.0, 0.0, 1.657492422711134E9, 0.0, 2022-07-10 18:33:42.711
125.0, 26809.7775351736, 13761.991412877014, -23949.53655595023, -46238.539664571246, 4750.148028152947, 44774.29923704854, -20787.122343435567, 24098.712098444954, -0.034, 0.9420000000000001, 0.268, 192.0, 0.0, 0.0, 0.0, 0.0, 0.0, 0.0, 0.0, 0.0, 0.0, 1.65749242271915E9, 0.0, 2022-07-10 18:33:42.719
126.0, 26800.859189135932, 13687.649510818663, -24068.894871341574, -46797.93677305422, 4761.972100969804, 46693.375312492295, -20785.937700979437, 23696.35834650497, -0.034, 0.9420000000000001, 0.268, 192.0, 0.0, 0.0, 0.0, 0.0, 0.0, 0.0, 0.0, 0.0, 0.0, 1.657492422725792E9, 0.0, 2022-07-10 18:33:42.725
127.0, 25281.7675807199, 13829.136053220756, -23825.86435387902, -46926.05697227204, 5116.314305819787, 42723.39257280738, -20444.671266635807, 21747.30858174665, -0.034, 0.9420000000000001, 0.27, 192.0, 254.0, 240.0, 29.0, 112.0, 8.0, 112.0, 0.0, 0.0, 0.0, 1.657492422725813E9, 0.0, 2022-07-10 18:33:42.725
128.0, 25041.57573480317, 13921.89579271028, -23675.146541016882, -46407.04946601981, 5165.711661066015, 40183.25092592847, -20384.70153626222, 21820.68935879342, -0.034, 0.9420000000000001, 0.27, 192.0, 0.0, 0.0, 0.0, 0.0, 0.0, 0.0, 0.0, 0.0, 0.0, 1.657492422733769E9, 0.0, 2022-07-10 18:33:42.733
129.0, 26573.050209647445, 13789.372299834766, -23906.263578684757, -46196.29486755072, 4806.027389291214, 43951.732689348784, -20745.995133637804, 23831.38523475948, -0.034, 0.9420000000000001, 0.27, 192.0, 0.0, 0.0, 0.0, 0.0, 0.0, 0.0, 0.0, 0.0, 0.0, 1.657492422733788E9, 0.0, 2022-07-10 18:33:42.733
130.0, 26955.04152238864, 13673.053821689347, -24091.358374519157, -46711.21200456763, 4717.536832992653, 46878.40305309332, -20828.383663700064, 23937.01957905526, -0.034, 0.9420000000000001, 0.27, 192.0, 0.0, 0.0, 0.0, 0.0, 0.0, 0.0, 0.0, 0.0, 0.0, 1.65749242274183E9, 0.0, 2022-07-10 18:33:42.741
131.0, 25534.34229306487, 13785.192523621623, -23885.699973785875, -46962.26679828964, 5062.714822615961, 43625.79955170149, -20489.262996824145, 22011.103869808183, -0.034, 0.9420000000000001, 0.27, 192.0, 0.0, 0.0, 0.0, 0.0, 0.0, 0.0, 0.0, 0.0, 0.0, 1.657492422741879E9, 0.0, 2022-07-10 18:33:42.741
132.0, 24905.31950060362, 13893.710242952138, -23687.574110934034, -46518.36115340724, 5186.968170043012, 40214.00692629897, -20363.154454607306, 21582.822094300045, -0.034, 0.9420000000000001, 0.27, 192.0, 0.0, 0.0, 0.0, 0.0, 0.0, 0.0, 0.0, 0.0, 0.0, 1.657492422748892E9, 0.0, 2022-07-10 18:33:42.748
133.0, 26283.572767206762, 13813.311018146398, -23863.63880200849, -46182.52619296625, 4860.766811462261, 43125.880435214094, -20676.57061535962, 23509.922446003253, -0.034, 0.9420000000000001, 0.27, 192.0, 0.0, 0.0, 0.0, 0.0, 0.0, 0.0, 0.0, 0.0, 0.0, 1.657492422748912E9, 0.0, 2022-07-10 18:33:42.748
134.0, 27049.16471828994, 13687.291882907377, -24088.00561285086, -46612.618459775265, 4690.02183556817, 46872.256323368114, -20855.675143679997, 24128.998712181892, -0.034, 0.9420000000000001, 0.27, 192.0, 0.0, 0.0, 0.0, 0.0, 0.0, 0.0, 0.0, 0.0, 0.0, 1.657492422757927E9, 0.0, 2022-07-10 18:33:42.757
135.0, 25803.501999795677, 13759.130389586735, -23933.532706920232, -46977.01894963014, 4996.151327628056, 44512.3591437768, -20559.49217790272, 22326.71050151712, -0.034, 0.9420000000000001, 0.27, 192.0, 0.0, 0.0, 0.0, 0.0, 0.0, 0.0, 0.0, 0.0, 0.0, 1.657492422758063E9, 0.0, 2022-07-10 18:33:42.758
136.0, 24856.324476757585, 13917.917182197236, -23688.803456879075, -46613.46782606457, 5208.98463833149, 40445.995682000605, -20358.7064574607, 21430.696121537225, -0.034, 0.9420000000000001, 0.27, 192.0, 0.0, 0.0, 0.0, 0.0, 0.0, 0.0, 0.0, 0.0, 0.0, 1.657492422764432E9, 0.0, 2022-07-10 18:33:42.764
137.0, 25987.166283984934, 13854.59469015535, -23803.959644312818, -46173.76430913977, 4934.102885020124, 42265.584142873784, -20617.338492553055, 23130.546287363326, -0.028, 0.9440000000000001, 0.274, 192.0, 255.0, 32.0, 29.0, 128.0, 8.0, 144.0, 0.0, 0.0, 0.0, 1.657492422764452E9, 0.0, 2022-07-10 18:33:42.764
138.0, 27085.463951285357, 13696.56785685633, -24074.214586521935, -46499.76450202042, 4680.835268597039, 46617.938174955634, -20844.946306341448, 24242.83614669277, -0.028, 0.9440000000000001, 0.274, 192.0, 0.0, 0.0, 0.0, 0.0, 0.0, 0.0, 0.0, 0.0, 0.0, 1.657492422771466E9, 0.0, 2022-07-10 18:33:42.771
139.0, 26104.40118365302, 13737.560956187363, -23989.054440147214, -46955.89655111988, 4929.856053573615, 45345.49806660391, -20607.906056392916, 22689.009927393192, -0.028, 0.9440000000000001, 0.274, 192.0, 0.0, 0.0, 0.0, 0.0, 0.0, 0.0, 0.0, 0.0, 0.0, 1.657492422771502E9, 0.0, 2022-07-10 18:33:42.771
140.0, 24885.717020716314, 13878.332242766886, -23720.74409970571, -46715.950574392155, 5212.404455233152, 40908.453274780906, -20330.83383212493, 21375.8449406439, -0.028, 0.9440000000000001, 0.274, 192.0, 0.0, 0.0, 0.0, 0.0, 0.0, 0.0, 0.0, 0.0, 0.0, 1.657492422778034E9, 0.0, 2022-07-10 18:33:42.778
141.0, 25689.93278621826, 13870.084449062879, -23758.607954813, -46201.212251330886, 5003.9073829540475, 41537.72193643117, -20546.77403530765, 22738.40728263942, -0.028, 0.9440000000000001, 0.274, 192.0, 0.0, 0.0, 0.0, 0.0, 0.0, 0.0, 0.0, 0.0, 0.0, 1.657492422785964E9, 0.0, 2022-07-10 18:33:42.785
142.0, 27030.411604691937, 13714.493955909486, -24043.838565807175, -46403.51789039587, 4687.965475078282, 46176.312408007674, -20844.9686580859, 24246.032446149882, -0.028, 0.9440000000000001, 0.274, 192.0, 0.0, 0.0, 0.0, 0.0, 0.0, 0.0, 0.0, 0.0, 0.0, 1.657492422785984E9, 0.0, 2022-07-10 18:33:42.785
143.0, 26356.037122730868, 13701.708758081051, -24020.793917273753, -46922.748914092655, 4875.541314547219, 46033.59651966054, -20654.397684859956, 23029.337588469698, -0.028, 0.9440000000000001, 0.274, 192.0, 0.0, 0.0, 0.0, 0.0, 0.0, 0.0, 0.0, 0.0, 0.0, 1.657492422793893E9, 0.0, 2022-07-10 18:33:42.793
144.0, 24974.7440188818, 13865.614100171817, -23746.381550595946, -46801.82597658944, 5195.394777702663, 41520.46638971167, -20345.36246602088, 21407.696176492715, -0.028, 0.9440000000000001, 0.274, 192.0, 0.0, 0.0, 0.0, 0.0, 0.0, 0.0, 0.0, 0.0, 0.0, 1.657492422793928E9, 0.0, 2022-07-10 18:33:42.793
145.0, 25422.672977766157, 13883.69666143616, -23718.419518282357, -46262.54543811625, 5071.610816909172, 40950.92158924599, -20458.23877552018, 22352.549118107454, -0.028, 0.9440000000000001, 0.274, 192.0, 0.0, 0.0, 0.0, 0.0, 0.0, 0.0, 0.0, 0.0, 0.0, 1.657492422801021E9, 0.0, 2022-07-10 18:33:42.801
146.0, 26918.67523415986, 13711.185897730102, -24007.5169810673, -46317.64248819858, 4709.087873588547, 45569.03786290144, -20823.041596775245, 24159.84411953022, -0.028, 0.9440000000000001, 0.274, 192.0, 0.0, 0.0, 0.0, 0.0, 0.0, 0.0, 0.0, 0.0, 0.0, 1.65749242280104E9, 0.0, 2022-07-10 18:33:42.801
147.0, 26609.818829276424, 13682.866237505226, -24071.353563231656, -46878.760681004605, 4793.622171118519, 46620.598032545815, -20756.500453531797, 23374.850854259832, -0.03, 0.9380000000000001, 0.272, 192.0, 255.0, 16.0, 29.0, 80.0, 8.0, 128.0, 0.0, 0.0, 0.0, 1.657492422808549E9, 0.0, 2022-07-10 18:33:42.808
148.0, 25121.483221230894, 13851.554852909429, -23802.12680126748, -46894.29514340105, 5153.395849871141, 42306.912518371646, -20395.98916721215, 21525.35575930545, -0.03, 0.9380000000000001, 0.272, 192.0, 0.0, 0.0, 0.0, 0.0, 0.0, 0.0, 0.0, 0.0, 0.0, 1.657492422808581E9, 0.0, 2022-07-10 18:33:42.808
149.0, 25176.6920300355, 13912.061025149946, -23699.532294217624, -46351.237160114906, 5129.7030007485155, 40562.13534619038, -20415.099908721437, 21991.72490736543, -0.03, 0.9380000000000001, 0.272, 192.0, 0.0, 0.0, 0.0, 0.0, 0.0, 0.0, 0.0, 0.0, 0.0, 1.657492422816536E9, 0.0, 2022-07-10 18:33:42.816
150.0, 26732.887534247344, 13751.48609298302, -23966.523881736266, -46253.11300195611, 4751.377374097989, 44795.30987683652, -20787.703488791405, 23961.248870044812, -0.03, 0.9380000000000001, 0.272, 192.0, 0.0, 0.0, 0.0, 0.0, 0.0, 0.0, 0.0, 0.0, 0.0, 1.657492422816554E9, 0.0, 2022-07-10 18:33:42.816
151.0, 26826.898971426366, 13681.70394679355, -24095.00170886537, -46795.366322441856, 4736.133484379468, 46961.84211514499, -20812.402166414522, 23672.598442148977, -0.03, 0.9380000000000001, 0.272, 192.0, 0.0, 0.0, 0.0, 0.0, 0.0, 0.0, 0.0, 0.0, 0.0, 1.657492422824764E9, 0.0, 2022-07-10 18:33:42.824
152.0, 25344.553630894858, 13830.991248010547, -23857.24620309427, -46941.613786412934, 5079.791555379815, 43175.031921271315, -20477.6847931963, 21738.524346175713, -0.03, 0.9380000000000001, 0.272, 192.0, 0.0, 0.0, 0.0, 0.0, 0.0, 0.0, 0.0, 0.0, 0.0, 1.657492422824811E9, 0.0, 2022-07-10 18:33:42.824
153.0, 24995.978176114342, 13943.420522620741, -23684.176645776828, -46436.37495474517, 5169.645568090149, 40386.56239349394, -20376.07376290247, 21688.47879034028, -0.03, 0.9380000000000001, 0.272, 192.0, 0.0, 0.0, 0.0, 0.0, 0.0, 0.0, 0.0, 0.0, 0.0, 1.65749242283114E9, 0.0, 2022-07-10 18:33:42.831
154.0, 26483.196196937108, 13817.289628659444, -23905.861247284563, -46193.41149251598, 4812.643505649985, 43939.12630547599, -20728.940752618404, 23685.40599172187, -0.03, 0.9380000000000001, 0.272, 192.0, 0.0, 0.0, 0.0, 0.0, 0.0, 0.0, 0.0, 0.0, 0.0, 1.65749242283116E9, 0.0, 2022-07-10 18:33:42.831
155.0, 26963.758702726213, 13678.84292350327, -24098.890912400595, -46692.458890969625, 4708.059693343603, 47079.56875319109, -20855.60808844663, 23908.297587430192, -0.03, 0.9380000000000001, 0.272, 192.0, 0.0, 0.0, 0.0, 0.0, 0.0, 0.0, 0.0, 0.0, 0.0, 1.657492422838237E9, 0.0, 2022-07-10 18:33:42.838
156.0, 25592.143904226294, 13778.44229679612, -23910.48805838681, -46966.67009194733, 5039.156083960067, 44054.707176054384, -20531.194869422303, 22018.07761407824, -0.03, 0.9380000000000001, 0.272, 192.0, 0.0, 0.0, 0.0, 0.0, 0.0, 0.0, 0.0, 0.0, 0.0, 1.657492422846418E9, 0.0, 2022-07-10 18:33:42.846
157.0, 24878.363296790518, 13910.004664660057, -23690.010451079663, -46543.50686591946, 5202.5473359283615, 40434.730402795125, -20334.521869960055, 21465.654249865325, -0.034, 0.9380000000000001, 0.264, 192.0, 254.0, 240.0, 29.0, 80.0, 8.0, 64.0, 0.0, 0.0, 0.0, 1.657492422846458E9, 0.0, 2022-07-10 18:33:42.846
158.0, 26185.985050914893, 13819.435396127154, -23850.85360418005, -46182.257972032785, 4883.431480339942, 43054.55601865721, -20640.986638186772, 23340.563278265392, -0.034, 0.9380000000000001, 0.264, 192.0, 0.0, 0.0, 0.0, 0.0, 0.0, 0.0, 0.0, 0.0, 0.0, 1.657492422855642E9, 0.0, 2022-07-10 18:33:42.855
159.0, 27033.652607637956, 13679.267606647922, -24095.04641235428, -46590.51258450897, 4684.16567852088, 46978.20359208627, -20841.70530339543, 24085.85984538315, -0.034, 0.9380000000000001, 0.264, 192.0, 0.0, 0.0, 0.0, 0.0, 0.0, 0.0, 0.0, 0.0, 0.0, 1.657492422855662E9, 0.0, 2022-07-10 18:33:42.855
160.0, 25868.12089301597, 13749.541491215408, -23961.003000855806, -46971.54277223859, 4970.960911626925, 44920.0996661305, -20573.484369931743, 22363.14384497927, -0.034, 0.9380000000000001, 0.264, 192.0, 0.0, 0.0, 0.0, 0.0, 0.0, 0.0, 0.0, 0.0, 0.0, 1.657492422861844E9, 0.0, 2022-07-10 18:33:42.861
161.0, 24855.050427323633, 13912.46335655014, -23704.807305909075, -46641.496913611525, 5211.778606388403, 40758.137793318965, -20349.40813176729, 21372.313365019963, -0.034, 0.9380000000000001, 0.264, 192.0, 0.0, 0.0, 0.0, 0.0, 0.0, 0.0, 0.0, 0.0, 0.0, 1.657492422861875E9, 0.0, 2022-07-10 18:33:42.861
162.0, 25902.050841099124, 13862.88718734827, -23800.539827411158, -46182.99557959981, 4946.463399703908, 42286.281858239396, -20590.94108235134, 22993.820666530213, -0.034, 0.9380000000000001, 0.264, 192.0, 0.0, 0.0, 0.0, 0.0, 0.0, 0.0, 0.0, 0.0, 0.0, 1.657492422868794E9, 0.0, 2022-07-10 18:33:42.868
163.0, 27051.623410180022, 13702.200496459067, -24079.71311565794, -46482.68776925657, 4673.123916759958, 46721.69497271717, -20854.98223960188, 24185.660384376097, -0.034, 0.9380000000000001, 0.264, 192.0, 0.0, 0.0, 0.0, 0.0, 0.0, 0.0, 0.0, 0.0, 0.0, 1.657492422868848E9, 0.0, 2022-07-10 18:33:42.868
164.0, 26143.092053305158, 13724.775758358928, -24012.099088680636, -46958.13172556541, 4903.078663716157, 45737.94999575019, -20637.16448988491, 22714.26739862769, -0.034, 0.9380000000000001, 0.264, 192.0, 0.0, 0.0, 0.0, 0.0, 0.0, 0.0, 0.0, 0.0, 0.0, 1.657492422876877E9, 0.0, 2022-07-10 18:33:42.876
165.0, 24878.855035168534, 13885.529504481496, -23732.299951589102, -46743.979661939105, 5203.17318477311, 41270.17155530114, -20337.584058950433, 21335.03065526851, -0.034, 0.9380000000000001, 0.264, 192.0, 0.0, 0.0, 0.0, 0.0, 0.0, 0.0, 0.0, 0.0, 0.0, 1.65749242287691E9, 0.0, 2022-07-10 18:33:42.876
166.0, 25595.58607287241, 13880.79093465697, -23756.641001300934, -46230.26951912278, 5016.670229038028, 41594.22714641418, -20528.892639743404, 22597.144257681877, -0.034, 0.9380000000000001, 0.264, 192.0, 0.0, 0.0, 0.0, 0.0, 0.0, 0.0, 0.0, 0.0, 0.0, 1.657492422884081E9, 0.0, 2022-07-10 18:33:42.884
167.0, 26980.924842467888, 13724.798110103382, -24039.256458193835, -46391.984390256934, 4694.6262949259635, 46218.44544630593, -20855.339867513165, 24162.88395677614, -0.036000000000000004, 0.9420000000000001, 0.268, 192.0, 254.0, 224.0, 29.0, 112.0, 8.0, 96.0, 0.0, 0.0, 0.0, 1.6574924228841E9, 0.0, 2022-07-10 18:33:42.884
168.0, 26408.496666967472, 13706.223810461022, -24042.542164628765, -46911.1707104648, 4837.4986454842865, 46411.072780021765, -20715.842630367595, 23069.74954244489, -0.036000000000000004, 0.9420000000000001, 0.268, 192.0, 0.0, 0.0, 0.0, 0.0, 0.0, 0.0, 0.0, 0.0, 0.0, 1.657492422891546E9, 0.0, 2022-07-10 18:33:42.891
169.0, 24996.98400461483, 13853.432399443675, -23758.384437368448, -46821.47315996566, 5187.348149698752, 41966.92013346197, -20356.292469059525, 21403.270531090562, -0.036000000000000004, 0.9420000000000001, 0.268, 192.0, 0.0, 0.0, 0.0, 0.0, 0.0, 0.0, 0.0, 0.0, 0.0, 1.657492422891577E9, 0.0, 2022-07-10 18:33:42.891
170.0, 25328.14745046466, 13891.36330978433, -23707.109535587973, -46279.979798791384, 5095.326017776253, 41063.66378827856, -20439.351551455446, 22216.58345658582, -0.036000000000000004, 0.9420000000000001, 0.268, 192.0, 0.0, 0.0, 0.0, 0.0, 0.0, 0.0, 0.0, 0.0, 0.0, 1.657492422900207E9, 0.0, 2022-07-10 18:33:42.900
171.0, 26826.07195688152, 13731.302467739877, -23987.13219012406, -46297.749435633355, 4735.865263446005, 45549.54714173641, -20793.40318362751, 24053.360408945133, -0.036000000000000004, 0.9420000000000001, 0.268, 192.0, 0.0, 0.0, 0.0, 0.0, 0.0, 0.0, 0.0, 0.0, 0.0, 1.657492422906657E9, 0.0, 2022-07-10 18:33:42.906
172.0, 26625.26388469504, 13674.216112401024, -24072.113522543135, -46843.601386976414, 4787.56484837113, 46906.34273366246, -20748.453825527886, 23414.9275320682, -0.036000000000000004, 0.9420000000000001, 0.268, 192.0, 0.0, 0.0, 0.0, 0.0, 0.0, 0.0, 0.0, 0.0, 0.0, 1.6574924229067E9, 0.0, 2022-07-10 18:33:42.906
173.0, 25145.801919198268, 13834.902803290226, -23810.843981605052, -46890.96473347721, 5139.291899119842, 42736.423639824825, -20401.934731237263, 21552.624887540926, -0.036000000000000004, 0.9420000000000001, 0.268, 192.0, 0.0, 0.0, 0.0, 0.0, 0.0, 0.0, 0.0, 0.0, 0.0, 1.657492422914604E9, 0.0, 2022-07-10 18:33:42.914
174.0, 25097.388040708072, 13913.044501905979, -23685.115419043952, -46356.758040995366, 5145.662146289605, 40696.42462687786, -20396.123277678882, 21881.016717078295, -0.036000000000000004, 0.9420000000000001, 0.268, 192.0, 0.0, 0.0, 0.0, 0.0, 0.0, 0.0, 0.0, 0.0, 0.0, 1.657492422914643E9, 0.0, 2022-07-10 18:33:42.914
175.0, 26633.779899332512, 13765.925319901147, -23930.962256307874, -46223.04990566372, 4782.580409357597, 44747.164219279795, -20752.0971598741, 23854.16166235944, -0.036000000000000004, 0.9420000000000001, 0.268, 192.0, 0.0, 0.0, 0.0, 0.0, 0.0, 0.0, 0.0, 0.0, 0.0, 1.657492422921155E9, 0.0, 2022-07-10 18:33:42.921
176.0, 26821.64631147937, 13672.025641444403, -24083.57996744871, -46753.4344498437, 4737.3181268356, 47179.637513117494, -20800.041651730735, 23704.15910531987, -0.036000000000000004, 0.9420000000000001, 0.268, 192.0, 0.0, 0.0, 0.0, 0.0, 0.0, 0.0, 0.0, 0.0, 0.0, 1.657492422921175E9, 0.0, 2022-07-10 18:33:42.921
177.0, 25372.49331146399, 13810.092366944835, -23857.96145891684, -46929.23091998469, 5085.535953704829, 43587.06397856045, -20459.42341797631, 21790.26863458975, -0.04, 0.9440000000000001, 0.27, 192.0, 254.0, 192.0, 29.0, 128.0, 8.0, 112.0, 0.0, 0.0, 0.0, 1.657492422929216E9, 0.0, 2022-07-10 18:33:42.929
178.0, 24929.74995729327, 13915.793766473982, -23679.236910252206, -46452.82583866428, 5180.441460662063, 40569.84669802746, -20369.345887821422, 21608.347786468006, -0.04, 0.9440000000000001, 0.27, 192.0, 0.0, 0.0, 0.0, 0.0, 0.0, 0.0, 0.0, 0.0, 0.0, 1.657492422929249E9, 0.0, 2022-07-10 18:33:42.929
179.0, 26375.818416573813, 13797.821259238872, -23885.319994130135, -46183.28615227773, 4835.844616394594, 43895.27218285468, -20697.782420847707, 23571.76972291109, -0.04, 0.9440000000000001, 0.27, 192.0, 0.0, 0.0, 0.0, 0.0, 0.0, 0.0, 0.0, 0.0, 0.0, 1.657492422936349E9, 0.0, 2022-07-10 18:33:42.936
180.0, 26945.76554843969, 13674.216112401024, -24088.05031633977, -46657.45605915262, 4717.179205081368, 47246.11160112758, -20823.578038642176, 23926.35779695008, -0.04, 0.9440000000000001, 0.27, 192.0, 0.0, 0.0, 0.0, 0.0, 0.0, 0.0, 0.0, 0.0, 0.0, 1.657492422936394E9, 0.0, 2022-07-10 18:33:42.936
181.0, 25613.467468436655, 13765.120657100757, -23918.512334646268, -46963.33968202349, 5029.276612910821, 44439.64891906368, -20516.643883781897, 22070.5595100593, -0.04, 0.9440000000000001, 0.27, 192.0, 0.0, 0.0, 0.0, 0.0, 0.0, 0.0, 0.0, 0.0, 0.0, 1.657492422944306E9, 0.0, 2022-07-10 18:33:42.944
182.0, 24824.92027579788, 13910.474051293619, -23694.50315171518, -46563.10934580676, 5199.105167282244, 40679.705522025295, -20353.632611469344, 21419.028510931556, -0.04, 0.9440000000000001, 0.27, 192.0, 0.0, 0.0, 0.0, 0.0, 0.0, 0.0, 0.0, 0.0, 0.0, 1.657492422944431E9, 0.0, 2022-07-10 18:33:42.944
183.0, 26071.722933259363, 13844.268184216999, -23828.121880069004, -46171.70794864988, 4908.77835855226, 43024.112942709085, -20629.81076595912, 23227.239933876986, -0.04, 0.9440000000000001, 0.27, 192.0, 0.0, 0.0, 0.0, 0.0, 0.0, 0.0, 0.0, 0.0, 0.0, 1.657492422951797E9, 0.0, 2022-07-10 18:33:42.951
184.0, 27006.070554980106, 13680.742821781972, -24074.639269666586, -46551.77701136792, 4692.54758269162, 47098.903012144925, -20834.30687598072, 24087.29035702829, -0.04, 0.9440000000000001, 0.27, 192.0, 0.0, 0.0, 0.0, 0.0, 0.0, 0.0, 0.0, 0.0, 0.0, 1.657492422951817E9, 0.0, 2022-07-10 18:33:42.951
185.0, 25905.247140556236, 13755.040020351413, -23950.765901895276, -46947.44759171577, 4963.383670256576, 45303.25326958338, -20576.92653857786, 22415.670444449242, -0.04, 0.9440000000000001, 0.27, 192.0, 0.0, 0.0, 0.0, 0.0, 0.0, 0.0, 0.0, 0.0, 0.0, 1.657492422958953E9, 0.0, 2022-07-10 18:33:42.958
186.0, 24815.085508237542, 13917.984237430603, -23691.932701102818, -46647.442477636636, 5217.321839013319, 41025.50936049335, -20327.056387311983, 21314.802326536457, -0.04, 0.9440000000000001, 0.27, 192.0, 0.0, 0.0, 0.0, 0.0, 0.0, 0.0, 0.0, 0.0, 0.0, 1.65749242295899E9, 0.0, 2022-07-10 18:33:42.958
187.0, 25775.316450037535, 13863.870664104303, -23758.473844346267, -46174.70308240689, 4986.428318789997, 42218.39961032863, -20552.585488866032, 22841.202955389377, -0.04, 0.9400000000000001, 0.268, 192.0, 254.0, 192.0, 29.0, 96.0, 8.0, 96.0, 0.0, 0.0, 0.0, 1.657492422965937E9, 0.0, 2022-07-10 18:33:42.965
188.0, 26989.15028442744, 13692.388080643188, -24035.45666163643, -46432.03871632084, 4699.610733939497, 46698.80678639493, -20841.437082461965, 24132.06090117227, -0.04, 0.9400000000000001, 0.268, 192.0, 0.0, 0.0, 0.0, 0.0, 0.0, 0.0, 0.0, 0.0, 0.0, 1.657492422973369E9, 0.0, 2022-07-10 18:33:42.973
189.0, 26177.04435313277, 13719.76896760094, -23999.202132129925, -46909.62844009739, 4891.880439744048, 46040.972595330786, -20661.03615296318, 22774.371239468008, -0.04, 0.9400000000000001, 0.268, 192.0, 0.0, 0.0, 0.0, 0.0, 0.0, 0.0, 0.0, 0.0, 0.0, 1.657492422973433E9, 0.0, 2022-07-10 18:33:42.973
190.0, 24874.004706621734, 13891.855048162348, -23724.83446894103, -46735.35188857936, 5195.975923058501, 41571.741291492144, -20339.953343862697, 21324.54768711897, -0.04, 0.9400000000000001, 0.268, 192.0, 0.0, 0.0, 0.0, 0.0, 0.0, 0.0, 0.0, 0.0, 0.0, 1.657492422981513E9, 0.0, 2022-07-10 18:33:42.981
191.0, 25478.03824878195, 13902.203905845156, -23716.765489192665, -46217.283155594254, 5053.081220755723, 41534.74915441861, -20477.52833098511, 22453.78016874554, -0.04, 0.9400000000000001, 0.268, 192.0, 0.0, 0.0, 0.0, 0.0, 0.0, 0.0, 0.0, 0.0, 0.0, 1.657492422981549E9, 0.0, 2022-07-10 18:33:42.981
192.0, 26893.663632114367, 13733.00120031848, -23994.12828613857, -46330.00300288237, 4718.542661493142, 46115.69447704488, -20815.39730017153, 24087.96090936195, -0.04, 0.9400000000000001, 0.268, 192.0, 0.0, 0.0, 0.0, 0.0, 0.0, 0.0, 0.0, 0.0, 0.0, 1.657492422988751E9, 0.0, 2022-07-10 18:33:42.988
193.0, 26424.52286774193, 13692.835115532294, -24026.940646998963, -46866.37781457637, 4835.308174527666, 46618.22874763355, -20711.484040198808, 23114.76595577788, -0.04, 0.9400000000000001, 0.268, 192.0, 0.0, 0.0, 0.0, 0.0, 0.0, 0.0, 0.0, 0.0, 0.0, 1.657492422988771E9, 0.0, 2022-07-10 18:33:42.988
194.0, 24993.027745846244, 13865.547044938452, -23752.952963465807, -46813.35947672838, 5186.409376431629, 42221.84177897475, -20359.01938188307, 21407.919693937267, -0.04, 0.9400000000000001, 0.268, 192.0, 0.0, 0.0, 0.0, 0.0, 0.0, 0.0, 0.0, 0.0, 0.0, 1.657492422996374E9, 0.0, 2022-07-10 18:33:42.996
195.0, 25239.90276335511, 13930.590621303394, -23681.472084697736, -46275.84472606715, 5120.091750632733, 41025.79993317126, -20422.163059969316, 22103.394222664145, -0.04, 0.9400000000000001, 0.268, 192.0, 0.0, 0.0, 0.0, 0.0, 0.0, 0.0, 0.0, 0.0, 0.0, 1.65749242299642E9, 0.0, 2022-07-10 18:33:42.996
196.0, 26760.134310738365, 13773.636671738228, -23958.83488164364, -46257.73981305836, 4749.879807219482, 45438.61543400472, -20788.374041125066, 23973.274108561767, -0.04, 0.9400000000000001, 0.268, 192.0, 0.0, 0.0, 0.0, 0.0, 0.0, 0.0, 0.0, 0.0, 0.0, 1.657492423005435E9, 0.0, 2022-07-10 18:33:43.005
197.0, 26657.383341477318, 13714.024569275925, -24058.90364157005, -46800.86485157786, 4776.634845332485, 47076.059529311606, -20763.697715246406, 23440.6320381918, -0.032, 0.9420000000000001, 0.268, 192.0, 255.0, 0.0, 29.0, 112.0, 8.0, 96.0, 0.0, 0.0, 0.0, 1.65749242300553E9, 0.0, 2022-07-10 18:33:43.005
198.0, 25180.648288804092, 13846.88333831827, -23810.151077526938, -46885.689721785755, 5129.747704237426, 43038.68628009394, -20414.921094765796, 21566.41591386985, -0.032, 0.9420000000000001, 0.268, 192.0, 0.0, 0.0, 0.0, 0.0, 0.0, 0.0, 0.0, 0.0, 0.0, 1.657492423012124E9, 0.0, 2022-07-10 18:33:43.012
199.0, 25024.543705528227, 13912.575115272417, -23671.25733748166, -46370.01262545736, 5155.854541761225, 40752.326339760584, -20379.806504226508, 21774.577709982124, -0.032, 0.9420000000000001, 0.268, 192.0, 0.0, 0.0, 0.0, 0.0, 0.0, 0.0, 0.0, 0.0, 0.0, 1.657492423012154E9, 0.0, 2022-07-10 18:33:43.012
200.0, 26536.415700485195, 13785.259578854988, -23909.146953719493, -46206.24139383333, 4794.605647874552, 44633.21502604664, -20732.96406662036, 23736.12209989096, -0.032, 0.9420000000000001, 0.268, 192.0, 0.0, 0.0, 0.0, 0.0, 0.0, 0.0, 0.0, 0.0, 0.0, 1.657492423018652E9, 0.0, 2022-07-10 18:33:43.018
201.0, 26836.934904686797, 13698.244237690478, -24068.29137424128, -46713.67069645771, 4737.139312879957, 47304.3155436892, -20805.160201211, 23706.886018143417, -0.032, 0.9420000000000001, 0.268, 192.0, 0.0, 0.0, 0.0, 0.0, 0.0, 0.0, 0.0, 0.0, 0.0, 1.657492423018672E9, 0.0, 2022-07-10 18:33:43.018
202.0, 25416.012157918474, 13830.253640443521, -23867.751522988263, -46923.799446082056, 5059.853799325681, 43918.74151453275, -20497.086107383504, 21809.446431332402, -0.032, 0.9420000000000001, 0.268, 192.0, 0.0, 0.0, 0.0, 0.0, 0.0, 0.0, 0.0, 0.0, 0.0, 1.6574924230274E9, 0.0, 2022-07-10 18:33:43.027
203.0, 24880.777285191692, 13937.162034173256, -23677.62758465142, -46473.925885430086, 5168.684443078571, 40716.5635486321, -20363.154454607306, 21517.666759212825, -0.032, 0.9420000000000001, 0.268, 192.0, 0.0, 0.0, 0.0, 0.0, 0.0, 0.0, 0.0, 0.0, 0.0, 1.657492423034271E9, 0.0, 2022-07-10 18:33:43.034
204.0, 26271.77104613436, 13817.043759470434, -23847.478490767302, -46171.506782949786, 4858.844561439105, 43769.76713773813, -20654.598850560054, 23431.60193343186, -0.032, 0.9420000000000001, 0.268, 192.0, 0.0, 0.0, 0.0, 0.0, 0.0, 0.0, 0.0, 0.0, 0.0, 1.65749242303429E9, 0.0, 2022-07-10 18:33:43.034
205.0, 26946.346693795527, 13686.934254996093, -24068.492539941377, -46620.665087779176, 4707.143271820935, 47314.48558741636, -20818.057157761712, 23919.58521838012, -0.032, 0.9420000000000001, 0.268, 192.0, 0.0, 0.0, 0.0, 0.0, 0.0, 0.0, 0.0, 0.0, 0.0, 1.65749242304176E9, 0.0, 2022-07-10 18:33:43.041
206.0, 25675.7617802336, 13780.096325885812, -23908.856381041573, -46950.80035338406, 5009.987057445891, 44769.00187361263, -20530.837241511017, 22109.026862266885, -0.032, 0.9420000000000001, 0.268, 192.0, 0.0, 0.0, 0.0, 0.0, 0.0, 0.0, 0.0, 0.0, 0.0, 1.657492423041802E9, 0.0, 2022-07-10 18:33:43.041
207.0, 24813.185609958844, 13914.653827506761, -23669.35743920296, -46569.72546216553, 5212.024475577411, 40860.44172769091, -20324.083605299427, 21344.619553639837, -0.032, 0.9420000000000001, 0.268, 192.0, 255.0, 0.0, 29.0, 112.0, 8.0, 96.0, 0.0, 0.0, 0.0, 1.657492423048282E9, 0.0, 2022-07-10 18:33:43.048
208.0, 25985.445199661877, 13835.036913756958, -23797.61174888751, -46164.287169490715, 4919.015457512791, 42906.72158082981, -20604.396832513434, 23081.52891177284, -0.032, 0.9420000000000001, 0.268, 192.0, 0.0, 0.0, 0.0, 0.0, 0.0, 0.0, 0.0, 0.0, 0.0, 1.657492423048304E9, 0.0, 2022-07-10 18:33:43.048
209.0, 26993.710040296322, 13672.807952500338, -24061.4293886935, -46521.736266819986, 4677.013120295182, 47106.92728840438, -20857.597393703152, 24044.017379762816, -0.032, 0.9420000000000001, 0.268, 192.0, 0.0, 0.0, 0.0, 0.0, 0.0, 0.0, 0.0, 0.0, 0.0, 1.657492423056467E9, 0.0, 2022-07-10 18:33:43.056
210.0, 25960.098321449557, 13745.406418491177, -23961.785311911743, -46942.664318402334, 4940.6295944010735, 45605.89588950824, -20606.207323814313, 22448.147529142803, -0.032, 0.9420000000000001, 0.268, 192.0, 0.0, 0.0, 0.0, 0.0, 0.0, 0.0, 0.0, 0.0, 0.0, 1.657492423056492E9, 0.0, 2022-07-10 18:33:43.056
211.0, 24810.235179690742, 13921.85108922137, -23690.010451079663, -46672.99052154905, 5215.265478523431, 41244.19882824407, -20322.518983187554, 21252.664476950704, -0.032, 0.9420000000000001, 0.268, 192.0, 0.0, 0.0, 0.0, 0.0, 0.0, 0.0, 0.0, 0.0, 0.0, 1.657492423064435E9, 0.0, 2022-07-10 18:33:43.064
212.0, 25679.762742491097, 13876.611158443828, -23742.715864505277, -46183.39791100001, 5001.716911997427, 42103.824568250726, -20528.892639743404, 22684.96426164678, -0.032, 0.9420000000000001, 0.268, 192.0, 0.0, 0.0, 0.0, 0.0, 0.0, 0.0, 0.0, 0.0, 0.0, 1.657492423064475E9, 0.0, 2022-07-10 18:33:43.064
213.0, 26959.15424336842, 13709.442461662587, -24028.438213877467, -46418.18063475855, 4696.727358904763, 46653.4103934062, -20834.26217249181, 24071.80059812076, -0.032, 0.9420000000000001, 0.268, 192.0, 0.0, 0.0, 0.0, 0.0, 0.0, 0.0, 0.0, 0.0, 0.0, 1.657492423071464E9, 0.0, 2022-07-10 18:33:43.071
214.0, 26226.933446757015, 13724.507537425463, -24005.28180662177, -46917.54095763456, 4877.687082014929, 46279.30924645773, -20664.925356498403, 22791.09034432058, -0.032, 0.9420000000000001, 0.268, 192.0, 0.0, 0.0, 0.0, 0.0, 0.0, 0.0, 0.0, 0.0, 0.0, 1.657492423071485E9, 0.0, 2022-07-10 18:33:43.071
215.0, 24887.773381206203, 13880.522713723507, -23734.55747777909, -46772.232266930616, 5189.0468822773555, 41802.76892218219, -20358.438236527236, 21269.562395758916, -0.032, 0.9420000000000001, 0.268, 192.0, 0.0, 0.0, 0.0, 0.0, 0.0, 0.0, 0.0, 0.0, 0.0, 1.657492423078943E9, 0.0, 2022-07-10 18:33:43.078
216.0, 25411.385346816227, 13894.134926096789, -23710.05996585607, -46245.87103675259, 5051.136618988111, 41473.930057755715, -20477.4836274962, 22296.714460458097, -0.032, 0.9420000000000001, 0.268, 192.0, 0.0, 0.0, 0.0, 0.0, 0.0, 0.0, 0.0, 0.0, 0.0, 1.657492423078975E9, 0.0, 2022-07-10 18:33:43.078
217.0, 26866.998000979187, 13729.648438650185, -23995.469390805887, -46332.72991570591, 4703.790510152639, 46055.121249571, -20827.221372988388, 23996.072887906183, -0.036000000000000004, 0.9480000000000001, 0.272, 192.0, 254.0, 224.0, 29.0, 160.0, 8.0, 128.0, 0.0, 0.0, 0.0, 1.657492423086112E9, 0.0, 2022-07-10 18:33:43.086
218.0, 26475.931879989133, 13698.691272579585, -24031.790975545762, -46862.198038363225, 4821.3606859875545, 46816.93575584123, -20712.713386143852, 23105.087650428733, -0.036000000000000004, 0.9480000000000001, 0.272, 192.0, 0.0, 0.0, 0.0, 0.0, 0.0, 0.0, 0.0, 0.0, 0.0, 1.657492423093996E9, 0.0, 2022-07-10 18:33:43.093
219.0, 25030.623380020068, 13849.811416841916, -23763.57004208208, -46834.25835779409, 5166.40456514413, 42502.19970967766, -20374.978527424162, 21368.960603351665, -0.036000000000000004, 0.9480000000000001, 0.272, 192.0, 0.0, 0.0, 0.0, 0.0, 0.0, 0.0, 0.0, 0.0, 0.0, 1.657492423094028E9, 0.0, 2022-07-10 18:33:43.094
220.0, 25172.445198588994, 13905.958998913646, -23679.661593396857, -46307.338334004686, 5121.097579133222, 41021.24017730238, -20415.99397849965, 21952.72111329092, -0.036000000000000004, 0.9480000000000001, 0.272, 192.0, 0.0, 0.0, 0.0, 0.0, 0.0, 0.0, 0.0, 0.0, 0.0, 1.657492423100647E9, 0.0, 2022-07-10 18:33:43.100
221.0, 26693.302594816996, 13754.682392440129, -23940.48409944583, -46245.55811233022, 4760.98862421377, 45310.09290338671, -20759.562642522174, 23856.329781571603, -0.036000000000000004, 0.9480000000000001, 0.272, 192.0, 0.0, 0.0, 0.0, 0.0, 0.0, 0.0, 0.0, 0.0, 0.0, 1.657492423100682E9, 0.0, 2022-07-10 18:33:43.100
222.0, 26696.208321596187, 13696.500801622964, -24049.828833321197, -46772.61224658635, 4773.2820836641895, 47228.25255730779, -20758.556814021686, 23456.680590710712, -0.036000000000000004, 0.9480000000000001, 0.272, 192.0, 0.0, 0.0, 0.0, 0.0, 0.0, 0.0, 0.0, 0.0, 0.0, 1.657492423115601E9, 0.0, 2022-07-10 18:33:43.115
223.0, 25232.99607431842, 13853.74532386605, -23808.5194001817, -46884.25921014061, 5123.980954167957, 43355.477554259014, -20418.65383608983, 21581.480989632724, -0.036000000000000004, 0.9480000000000001, 0.272, 192.0, 0.0, 0.0, 0.0, 0.0, 0.0, 0.0, 0.0, 0.0, 0.0, 1.657492423115645E9, 0.0, 2022-07-10 18:33:43.115
224.0, 24973.51467293676, 13953.747028559093, -23653.331238428502, -46386.91054426558, 5177.4239751605965, 40792.58183152459, -20354.92901264775, 21650.413769532894, -0.036000000000000004, 0.9480000000000001, 0.272, 192.0, 0.0, 0.0, 0.0, 0.0, 0.0, 0.0, 0.0, 0.0, 0.0, 1.657492423122018E9, 0.0, 2022-07-10 18:33:43.122
225.0, 26451.94845818859, 13812.662817557195, -23879.888520227494, -46184.67196043396, 4821.1818720319125, 44452.23295119202, -20695.279025468713, 23605.498505294145, -0.036000000000000004, 0.9480000000000001, 0.272, 192.0, 0.0, 0.0, 0.0, 0.0, 0.0, 0.0, 0.0, 0.0, 0.0, 1.657492423122048E9, 0.0, 2022-07-10 18:33:43.122
226.0, 26856.872660740933, 13688.94591199707, -24064.87155733962, -46682.62412340929, 4723.460045273309, 47395.2871436223, -20804.02026224378, 23723.381605551436, -0.034, 0.9440000000000001, 0.266, 192.0, 254.0, 240.0, 29.0, 128.0, 8.0, 80.0, 0.0, 0.0, 0.0, 1.657492423128134E9, 0.0, 2022-07-10 18:33:43.128
227.0, 25473.366734190793, 13794.624959781762, -23862.18593861889, -46921.00547802514, 5060.703165614983, 44217.69609662248, -20480.836389164495, 21842.147033470515, -0.034, 0.9440000000000001, 0.266, 192.0, 0.0, 0.0, 0.0, 0.0, 0.0, 0.0, 0.0, 0.0, 0.0, 1.657492423128183E9, 0.0, 2022-07-10 18:33:43.128
228.0, 24838.331322471062, 13937.989048718102, -23647.855061036953, -46477.47981279848, 5208.738769142481, 40772.44290977036, -20327.056387311983, 21409.931350938245, -0.034, 0.9440000000000001, 0.266, 192.0, 0.0, 0.0, 0.0, 0.0, 0.0, 0.0, 0.0, 0.0, 0.0, 1.65749242313453E9, 0.0, 2022-07-10 18:33:43.134
229.0, 26182.118199124125, 13843.709390605616, -23812.699176394843, -46142.628329113526, 4886.985407708336, 43572.267123731035, -20644.339399855067, 23290.830646852333, -0.034, 0.9440000000000001, 0.266, 192.0, 0.0, 0.0, 0.0, 0.0, 0.0, 0.0, 0.0, 0.0, 0.0, 1.657492423134581E9, 0.0, 2022-07-10 18:33:43.134
230.0, 26959.53422302416, 13696.009063244946, -24046.252554208346, -46570.038386587905, 4706.562126465097, 47346.85091338765, -20832.87636433558, 23914.19844796639, -0.034, 0.9440000000000001, 0.266, 192.0, 0.0, 0.0, 0.0, 0.0, 0.0, 0.0, 0.0, 0.0, 0.0, 1.657492423140556E9, 0.0, 2022-07-10 18:33:43.140
231.0, 25738.033740286082, 13777.34706131781, -23904.20721819487, -46925.56523389402, 4995.9278101835025, 45062.323816099626, -20545.87996552944, 22146.421330740613, -0.034, 0.9440000000000001, 0.266, 192.0, 0.0, 0.0, 0.0, 0.0, 0.0, 0.0, 0.0, 0.0, 0.0, 1.657492423140576E9, 0.0, 2022-07-10 18:33:43.140
232.0, 24782.116685165965, 13924.220374133633, -23661.869604810432, -46576.38628201321, 5215.51134771244, 40998.486101446884, -20322.6977971432, 21270.277651581484, -0.034, 0.9440000000000001, 0.266, 192.0, 0.0, 0.0, 0.0, 0.0, 0.0, 0.0, 0.0, 0.0, 0.0, 1.657492423146808E9, 0.0, 2022-07-10 18:33:43.146
233.0, 25884.12474204597, 13859.288556490965, -23769.448550873825, -46149.17739023893, 4950.2184927724, 42752.20397141027, -20582.916806091882, 22943.14926185003, -0.034, 0.9440000000000001, 0.266, 192.0, 0.0, 0.0, 0.0, 0.0, 0.0, 0.0, 0.0, 0.0, 0.0, 1.657492423154747E9, 0.0, 2022-07-10 18:33:43.154
234.0, 26966.91029869441, 13683.760307283439, -24041.893964039562, -46476.921019187095, 4692.659341413897, 47082.02744508117, -20848.41082673202, 24030.114594711613, -0.034, 0.9440000000000001, 0.266, 192.0, 0.0, 0.0, 0.0, 0.0, 0.0, 0.0, 0.0, 0.0, 0.0, 1.657492423154768E9, 0.0, 2022-07-10 18:33:43.154
235.0, 25990.072010764125, 13721.355941457266, -23958.298439776714, -46918.971469279706, 4933.387629197554, 45848.25585463713, -20629.766062470208, 22499.82476232347, -0.034, 0.9440000000000001, 0.266, 192.0, 0.0, 0.0, 0.0, 0.0, 0.0, 0.0, 0.0, 0.0, 0.0, 1.657492423161077E9, 0.0, 2022-07-10 18:33:43.161
236.0, 24774.159464139877, 13872.409030486231, -23694.614910437456, -46678.4666989406, 5212.471510466517, 41438.36843232733, -20345.988314865626, 21224.166002770187, -0.032, 0.9560000000000001, 0.264, 192.0, 255.0, 0.0, 29.0, 224.0, 8.0, 64.0, 0.0, 0.0, 0.0, 1.65749242316114E9, 0.0, 2022-07-10 18:33:43.161
237.0, 25553.967124696628, 13839.082579503367, -23733.84222195652, -46187.354169768594, 5019.263031394843, 42019.73730560986, -20516.375662848433, 22565.337725321977, -0.032, 0.9560000000000001, 0.264, 192.0, 0.0, 0.0, 0.0, 0.0, 0.0, 0.0, 0.0, 0.0, 0.0, 1.657492423168845E9, 0.0, 2022-07-10 18:33:43.168
238.0, 26873.189434193308, 13663.241405873467, -24012.90375148103, -46382.37314014115, 4719.257917315712, 46590.51258450897, -20818.370082184087, 24025.46543186491, -0.032, 0.9560000000000001, 0.264, 192.0, 0.0, 0.0, 0.0, 0.0, 0.0, 0.0, 0.0, 0.0, 0.0, 1.657492423168867E9, 0.0, 2022-07-10 18:33:43.168
239.0, 26206.66041453605, 13649.2715655889, -24002.04080367575, -46881.0182071946, 4879.788145993727, 46492.18726065008, -20660.075027951603, 22844.93569671341, -0.032, 0.9560000000000001, 0.264, 192.0, 0.0, 0.0, 0.0, 0.0, 0.0, 0.0, 0.0, 0.0, 0.0, 1.657492423177174E9, 0.0, 2022-07-10 18:33:43.177
240.0, 24809.430516890352, 13794.915532459681, -23740.27952435965, -46768.946560495686, 5193.226658490498, 42034.71297439492, -20342.903774130795, 21275.552663272938, -0.032, 0.9560000000000001, 0.264, 192.0, 0.0, 0.0, 0.0, 0.0, 0.0, 0.0, 0.0, 0.0, 0.0, 1.65749242317725E9, 0.0, 2022-07-10 18:33:43.177
241.0, 25216.61224563268, 13812.707521046106, -23699.129962817427, -46248.06150770921, 5093.537878219829, 41390.78156838198, -20424.018254759107, 22195.282244119913, -0.032, 0.9560000000000001, 0.264, 192.0, 0.0, 0.0, 0.0, 0.0, 0.0, 0.0, 0.0, 0.0, 0.0, 1.65749242318339E9, 0.0, 2022-07-10 18:33:43.183
242.0, 26689.346336048406, 13632.574812480785, -23977.65505047501, -46299.06818855622, 4745.789437984162, 45916.1381025479, -20773.19720663991, 23951.525861206756, -0.032, 0.9560000000000001, 0.264, 192.0, 0.0, 0.0, 0.0, 0.0, 0.0, 0.0, 0.0, 0.0, 0.0, 1.657492423183408E9, 0.0, 2022-07-10 18:33:43.183
243.0, 26403.221655276022, 13562.323279657756, -24054.81327233473, -46841.90265439781, 4803.099310767569, 47032.87595902395, -20722.10111881508, 23202.630663231692, -0.032, 0.9560000000000001, 0.264, 192.0, 0.0, 0.0, 0.0, 0.0, 0.0, 0.0, 0.0, 0.0, 0.0, 1.657492423191801E9, 0.0, 2022-07-10 18:33:43.191
244.0, 24914.886047230488, 13692.969225999026, -23806.08306003607, -46873.597428035435, 5141.974108454479, 42805.95991682529, -20384.813294984495, 21395.62623448685, -0.032, 0.9560000000000001, 0.264, 192.0, 0.0, 0.0, 0.0, 0.0, 0.0, 0.0, 0.0, 0.0, 0.0, 1.657492423191996E9, 0.0, 2022-07-10 18:33:43.191
245.0, 24921.390404866983, 13753.05071509489, -23690.681003413323, -46350.678366503525, 5136.833207229759, 40985.700903618446, -20392.345832865936, 21822.432794860935, -0.032, 0.9560000000000001, 0.264, 192.0, 0.0, 0.0, 0.0, 0.0, 0.0, 0.0, 0.0, 0.0, 0.0, 1.657492423199473E9, 0.0, 2022-07-10 18:33:43.199
246.0, 26438.984446404513, 13592.11815501668, -23945.69205590392, -46253.15770544502, 4768.767031284217, 45097.39370315, -20763.809473968682, 23734.043387656617, -0.028, 0.9480000000000001, 0.268, 192.0, 255.0, 32.0, 29.0, 160.0, 8.0, 96.0, 0.0, 0.0, 0.0, 1.657492423199502E9, 0.0, 2022-07-10 18:33:43.199
247.0, 26562.43313103117, 13495.893895136584, -24093.168865820036, -46787.610267115866, 4731.12669362148, 47314.418532183, -20808.60236985712, 23482.49685555659, -0.028, 0.9480000000000001, 0.268, 192.0, 0.0, 0.0, 0.0, 0.0, 0.0, 0.0, 0.0, 0.0, 0.0, 1.657492423205808E9, 0.0, 2022-07-10 18:33:43.205
248.0, 25108.20628502444, 13626.22691705548, -23866.11984564303, -46941.99376606867, 5088.218163039465, 43620.77040919905, -20444.783025358087, 21605.50911492218, -0.028, 0.9480000000000001, 0.268, 192.0, 0.0, 0.0, 0.0, 0.0, 0.0, 0.0, 0.0, 0.0, 0.0, 1.657492423205864E9, 0.0, 2022-07-10 18:33:43.205
249.0, 24747.918516149344, 13718.472566422532, -23695.50898021567, -46455.57510323228, 5165.510495365917, 40832.6361575885, -20358.795864438518, 21558.391637610395, -0.028, 0.9480000000000001, 0.268, 192.0, 0.0, 0.0, 0.0, 0.0, 0.0, 0.0, 0.0, 0.0, 0.0, 1.657492423213171E9, 0.0, 2022-07-10 18:33:43.213
250.0, 26206.0345656913, 13609.328998247267, -23901.614415838056, -46215.13738812654, 4817.04679930768, 44293.46851032597, -20703.839743595094, 23494.231521395628, -0.028, 0.9480000000000001, 0.268, 192.0, 0.0, 0.0, 0.0, 0.0, 0.0, 0.0, 0.0, 0.0, 0.0, 1.657492423222574E9, 0.0, 2022-07-10 18:33:43.222
251.0, 26706.937158934732, 13493.278741035312, -24092.744182675386, -46700.706684673634, 4704.058731086103, 47456.62033040766, -20817.49836415033, 23724.968579407763, -0.028, 0.9480000000000001, 0.268, 192.0, 0.0, 0.0, 0.0, 0.0, 0.0, 0.0, 0.0, 0.0, 0.0, 1.657492423222593E9, 0.0, 2022-07-10 18:33:43.222
252.0, 25353.561383910346, 13586.820791580772, -23902.82141003864, -46982.62923748842, 5031.623546078628, 44478.09391952681, -20498.49426728419, 21863.29178372524, -0.028, 0.9480000000000001, 0.268, 192.0, 0.0, 0.0, 0.0, 0.0, 0.0, 0.0, 0.0, 0.0, 0.0, 1.657492423229435E9, 0.0, 2022-07-10 18:33:43.229
253.0, 24657.908041227824, 13721.490051923998, -23683.260224254158, -46559.80128762738, 5187.6387223766715, 40871.75171038529, -20342.83671889743, 21335.254172713063, -0.028, 0.9480000000000001, 0.268, 192.0, 0.0, 0.0, 0.0, 0.0, 0.0, 0.0, 0.0, 0.0, 0.0, 1.657492423229486E9, 0.0, 2022-07-10 18:33:43.229
254.0, 25949.95062946685, 13641.31434456281, -23842.00231337575, -46199.29000130773, 4871.853276712093, 43417.57070035586, -20645.389931844467, 23162.509281934417, -0.028, 0.9480000000000001, 0.268, 192.0, 0.0, 0.0, 0.0, 0.0, 0.0, 0.0, 0.0, 0.0, 0.0, 1.657492423235774E9, 0.0, 2022-07-10 18:33:43.235
255.0, 26810.761011929633, 13502.979398128915, -24082.820008137227, -46602.247250348, 4673.2580272266905, 47341.53119820729, -20837.167899271, 23900.116848959547, -0.028, 0.9480000000000001, 0.268, 192.0, 0.0, 0.0, 0.0, 0.0, 0.0, 0.0, 0.0, 0.0, 0.0, 1.657492423235815E9, 0.0, 2022-07-10 18:33:43.235
0.0, 25675.98529767815, 13586.843143325228, -23952.710503662885, -46993.64864750489, 4949.480885205375, 45357.85858128769, -20573.529073420654, 22203.574741312834, -0.032, 0.9480000000000001, 0.274, 192.0, 255.0, 0.0, 29.0, 160.0, 8.0, 144.0, 0.0, 0.0, 0.0, 1.657492423245172E9, 0.0, 2022-07-10 18:33:43.245
1.0, 24669.955631489236, 13765.634747223228, -23690.658651668866, -46671.962341304104, 5192.3325887122855, 41195.76259800942, -20336.913506616773, 21215.180601499153, -0.032, 0.9480000000000001, 0.274, 192.0, 0.0, 0.0, 0.0, 0.0, 0.0, 0.0, 0.0, 0.0, 0.0, 1.657492423245198E9, 0.0, 2022-07-10 18:33:43.245
2.0, 25706.853056770928, 13731.034246806414, -23777.249309688726, -46205.682600221946, 4944.675260147484, 42654.146868484844, -20570.377477452457, 22801.9309403814, -0.032, 0.9480000000000001, 0.274, 192.0, 0.0, 0.0, 0.0, 0.0, 0.0, 0.0, 0.0, 0.0, 0.0, 1.657492423251834E9, 0.0, 2022-07-10 18:33:43.251
3.0, 26864.047570711085, 13572.806247807295, -24045.76081583033, -46490.8238042383, 4677.3707482064665, 47036.58634860353, -20844.16399528551, 23958.320791521168, -0.032, 0.9480000000000001, 0.274, 192.0, 0.0, 0.0, 0.0, 0.0, 0.0, 0.0, 0.0, 0.0, 0.0, 1.657492423251932E9, 0.0, 2022-07-10 18:33:43.251
4.0, 25999.012708546248, 13615.587486694752, -23987.489818035345, -46962.043280845086, 4888.751195520305, 46114.04044795519, -20642.618315532007, 22521.03656781156, -0.032, 0.9480000000000001, 0.274, 192.0, 0.0, 0.0, 0.0, 0.0, 0.0, 0.0, 0.0, 0.0, 0.0, 1.657492423259136E9, 0.0, 2022-07-10 18:33:43.259
5.0, 24756.009847642166, 13776.475343284053, -23714.619721724954, -46762.12927843682, 5188.197515988054, 41683.90234516887, -20325.17884077774, 21170.052429443887, -0.032, 0.9480000000000001, 0.274, 192.0, 0.0, 0.0, 0.0, 0.0, 0.0, 0.0, 0.0, 0.0, 0.0, 1.657492423259176E9, 0.0, 2022-07-10 18:33:43.259
6.0, 25472.67383011268, 13786.421869566664, -23718.21835258226, -46231.09653366763, 5022.816958763237, 41934.48775225732, -20497.53314227261, 22400.94064485319, -0.032, 0.9480000000000001, 0.274, 192.0, 0.0, 0.0, 0.0, 0.0, 0.0, 0.0, 0.0, 0.0, 0.0, 1.657492423266968E9, 0.0, 2022-07-10 18:33:43.266
7.0, 26856.9397159743, 13633.692399703552, -23997.525751295776, -46377.67927380554, 4705.511594475698, 46501.463234599025, -20812.87155304808, 23937.623076155553, -0.032, 0.9480000000000001, 0.274, 192.0, 0.0, 0.0, 0.0, 0.0, 0.0, 0.0, 0.0, 0.0, 0.0, 1.657492423267001E9, 0.0, 2022-07-10 18:33:43.267
8.0, 26311.534799520352, 13625.31049553281, -24013.239027647858, -46903.928745261284, 4845.38881127701, 46736.692993246674, -20684.84076080808, 22868.449731880395, -0.032, 0.9480000000000001, 0.274, 192.0, 0.0, 0.0, 0.0, 0.0, 0.0, 0.0, 0.0, 0.0, 0.0, 1.657492423273389E9, 0.0, 2022-07-10 18:33:43.273
9.0, 24917.612960054037, 13792.166267891678, -23744.392245339426, -46831.41968624827, 5170.0255477458895, 42341.80359146638, -20368.474169787667, 21240.996866345035, -0.032, 0.9480000000000001, 0.274, 192.0, 0.0, 0.0, 0.0, 0.0, 0.0, 0.0, 0.0, 0.0, 0.0, 1.657492423281396E9, 0.0, 2022-07-10 18:33:43.281
10.0, 25234.314827241284, 13831.237117199555, -23692.82677088103, -46300.38694147908, 5080.730328646938, 41389.52987069248, -20456.182415030293, 22027.822974660754, -0.036000000000000004, 0.9480000000000001, 0.272, 192.0, 254.0, 224.0, 29.0, 160.0, 8.0, 128.0, 0.0, 0.0, 0.0, 1.657492423281427E9, 0.0, 2022-07-10 18:33:43.281
11.0, 26731.14409817983, 13676.116010679723, -23958.857233388095, -46299.73874088988, 4735.351173323533, 45811.82251117498, -20802.790916298738, 23820.90226660994, -0.036000000000000004, 0.9480000000000001, 0.272, 192.0, 0.0, 0.0, 0.0, 0.0, 0.0, 0.0, 0.0, 0.0, 0.0, 1.657492423288765E9, 0.0, 2022-07-10 18:33:43.288
12.0, 26565.29415432145, 13624.014094354403, -24047.99599027586, -46848.65288122331, 4775.070223220614, 47202.592754673096, -20767.944546692914, 23191.410087515127, -0.036000000000000004, 0.9480000000000001, 0.272, 192.0, 0.0, 0.0, 0.0, 0.0, 0.0, 0.0, 0.0, 0.0, 0.0, 1.657492423288803E9, 0.0, 2022-07-10 18:33:43.288
13.0, 25115.11297406113, 13779.470477041064, -23794.75072559723, -46914.14349247736, 5118.191852354033, 43121.85712121214, -20413.602341842932, 21388.18310358323, -0.036000000000000004, 0.9480000000000001, 0.272, 192.0, 0.0, 0.0, 0.0, 0.0, 0.0, 0.0, 0.0, 0.0, 0.0, 1.657492423297878E9, 0.0, 2022-07-10 18:33:43.297
14.0, 25044.14618541553, 13859.288556490965, -23669.35743920296, -46393.41490190207, 5126.73021873596, 41062.41209058906, -20384.500370562124, 21706.49429637126, -0.036000000000000004, 0.9480000000000001, 0.272, 192.0, 0.0, 0.0, 0.0, 0.0, 0.0, 0.0, 0.0, 0.0, 0.0, 1.657492423297926E9, 0.0, 2022-07-10 18:33:43.297
15.0, 26558.566279240404, 13724.28401998091, -23911.002148509284, -46237.64559479304, 4770.018728973714, 45028.550330227656, -20748.72204646135, 23631.38182537339, -0.036000000000000004, 0.9480000000000001, 0.272, 192.0, 0.0, 0.0, 0.0, 0.0, 0.0, 0.0, 0.0, 0.0, 0.0, 1.657492423304157E9, 0.0, 2022-07-10 18:33:43.304
16.0, 26784.296546494552, 13634.206489826023, -24060.66942938202, -46760.29643539148, 4722.498920261732, 47488.1586418341, -20788.93283473645, 23488.75534400408, -0.036000000000000004, 0.9480000000000001, 0.272, 192.0, 0.0, 0.0, 0.0, 0.0, 0.0, 0.0, 0.0, 0.0, 0.0, 1.657492423304193E9, 0.0, 2022-07-10 18:33:43.304
17.0, 25361.00451481396, 13767.087610612823, -23843.92456339891, -46959.651644188365, 5068.280406985332, 43973.346826237066, -20447.576993414998, 21618.450774961802, -0.036000000000000004, 0.9480000000000001, 0.272, 192.0, 0.0, 0.0, 0.0, 0.0, 0.0, 0.0, 0.0, 0.0, 0.0, 1.65749242331171E9, 0.0, 2022-07-10 18:33:43.311
18.0, 24909.521628561215, 13886.334167281888, -23656.795758819077, -46489.1250716597, 5175.613483859716, 40958.699996316434, -20349.564593978477, 21436.39581637333, -0.036000000000000004, 0.9480000000000001, 0.272, 192.0, 0.0, 0.0, 0.0, 0.0, 0.0, 0.0, 0.0, 0.0, 0.0, 1.657492423311786E9, 0.0, 2022-07-10 18:33:43.311
19.0, 26320.654311258117, 13779.58223576334, -23852.842909436575, -46197.9041931515, 4843.377154276032, 44178.938171736976, -20685.779534075205, 23338.752786964513, -0.036000000000000004, 0.9480000000000001, 0.272, 192.0, 0.0, 0.0, 0.0, 0.0, 0.0, 0.0, 0.0, 0.0, 0.0, 1.657492423318662E9, 0.0, 2022-07-10 18:33:43.318
20.0, 26907.94639682131, 13659.396905827154, -24062.23405149389, -46663.89336155574, 4706.02568459817, 47526.53658706386, -20827.400186944033, 23689.429305723825, -0.04, 0.9420000000000001, 0.274, 192.0, 254.0, 192.0, 29.0, 112.0, 8.0, 144.0, 0.0, 0.0, 0.0, 1.65749242331868E9, 0.0, 2022-07-10 18:33:43.318
21.0, 25619.077756294937, 13772.161456604179, -23897.479343113824, -46983.3891967999, 5003.37094108712, 44817.68397303629, -20540.001456737693, 21882.357821745616, -0.04, 0.9420000000000001, 0.274, 192.0, 0.0, 0.0, 0.0, 0.0, 0.0, 0.0, 0.0, 0.0, 0.0, 1.657492423326795E9, 0.0, 2022-07-10 18:33:43.326
22.0, 24829.90471481141, 13915.771414729526, -23668.128093257917, -46598.17923285714, 5192.846678834758, 41062.32268361124, -20346.36829452137, 21236.72768315407, -0.04, 0.9420000000000001, 0.274, 192.0, 0.0, 0.0, 0.0, 0.0, 0.0, 0.0, 0.0, 0.0, 0.0, 1.657492423326829E9, 0.0, 2022-07-10 18:33:43.326
23.0, 26041.033988122224, 13824.621000840783, -23806.88772283646, -46196.741902439826, 4894.830870012149, 43308.494187413955, -20645.769911500207, 22995.16177119753, -0.04, 0.9420000000000001, 0.274, 192.0, 0.0, 0.0, 0.0, 0.0, 0.0, 0.0, 0.0, 0.0, 0.0, 1.657492423333754E9, 0.0, 2022-07-10 18:33:43.333
24.0, 26975.96275519881, 13677.255949646944, -24049.113577498625, -46561.20944752806, 4681.908152330894, 47337.79845688325, -20864.191158317466, 23826.311388768125, -0.04, 0.9420000000000001, 0.274, 192.0, 0.0, 0.0, 0.0, 0.0, 0.0, 0.0, 0.0, 0.0, 0.0, 1.657492423340956E9, 0.0, 2022-07-10 18:33:43.340
25.0, 25909.35986153601, 13739.1926335326, -23941.042893057216, -46973.86735366194, 4947.31276599321, 45644.296186482454, -20584.50377994821, 22220.74088105451, -0.04, 0.9420000000000001, 0.274, 192.0, 0.0, 0.0, 0.0, 0.0, 0.0, 0.0, 0.0, 0.0, 0.0, 1.657492423340977E9, 0.0, 2022-07-10 18:33:43.340
26.0, 24828.094223510532, 13901.063966877935, -23686.03184056662, -46700.46081548462, 5203.329646984297, 41417.13427509478, -20331.839660625417, 21139.76581570695, -0.04, 0.9420000000000001, 0.274, 192.0, 0.0, 0.0, 0.0, 0.0, 0.0, 0.0, 0.0, 0.0, 0.0, 1.657492423348196E9, 0.0, 2022-07-10 18:33:43.348
27.0, 25748.583763668987, 13845.855158073326, -23757.60212631251, -46221.820559718675, 4970.960911626925, 42515.90132902877, -20557.704038346295, 22610.264731677144, -0.04, 0.9420000000000001, 0.274, 192.0, 0.0, 0.0, 0.0, 0.0, 0.0, 0.0, 0.0, 0.0, 0.0, 1.657492423348215E9, 0.0, 2022-07-10 18:33:43.348
28.0, 26966.35150508303, 13679.289958392377, -24030.226353433893, -46471.10956562872, 4694.291018759134, 46965.35133902447, -20846.063893564213, 23875.217005636336, -0.04, 0.9420000000000001, 0.274, 192.0, 0.0, 0.0, 0.0, 0.0, 0.0, 0.0, 0.0, 0.0, 0.0, 1.657492423357813E9, 0.0, 2022-07-10 18:33:43.357
29.0, 26185.13568462559, 13708.391929673187, -23986.439286045945, -46957.30471102056, 4891.880439744048, 46368.0456719453, -20651.89428948096, 22548.059826858025, -0.04, 0.9420000000000001, 0.274, 192.0, 0.0, 0.0, 0.0, 0.0, 0.0, 0.0, 0.0, 0.0, 0.0, 1.657492423357842E9, 0.0, 2022-07-10 18:33:43.357
30.0, 24897.07170689961, 13880.768582912515, -23718.710090960278, -46795.701598608684, 5191.058539278333, 41939.71806045986, -20349.78811142303, 21114.64245493918, -0.034, 0.9400000000000001, 0.274, 192.0, 254.0, 240.0, 29.0, 96.0, 8.0, 144.0, 0.0, 0.0, 0.0, 1.657492423365804E9, 0.0, 2022-07-10 18:33:43.365
31.0, 25482.195673250637, 13895.833658675392, -23712.36219553497, -46262.232513693874, 5039.446656637986, 41849.841696005074, -20490.760563702654, 22221.277322921436, -0.034, 0.9400000000000001, 0.274, 192.0, 0.0, 0.0, 0.0, 0.0, 0.0, 0.0, 0.0, 0.0, 0.0, 1.657492423365842E9, 0.0, 2022-07-10 18:33:43.365
32.0, 26886.444018655304, 13742.254822522978, -23986.93102442396, -46362.70360502048, 4704.394007252933, 46375.33234063773, -20827.154317755023, 23819.494106709255, -0.034, 0.9400000000000001, 0.274, 192.0, 0.0, 0.0, 0.0, 0.0, 0.0, 0.0, 0.0, 0.0, 0.0, 1.65749242337216E9, 0.0, 2022-07-10 18:33:43.372
33.0, 26453.110748900268, 13717.354979199765, -24015.295388137747, -46892.50700384462, 4815.102197540069, 46928.33685020648, -20720.00005483628, 22873.14359821601, -0.034, 0.9400000000000001, 0.274, 192.0, 0.0, 0.0, 0.0, 0.0, 0.0, 0.0, 0.0, 0.0, 0.0, 1.65749242337219E9, 0.0, 2022-07-10 18:33:43.372
34.0, 25042.134528414554, 13875.426515987698, -23752.617687298978, -46858.219427850185, 5158.000309228934, 42608.01286792909, -20382.287547861048, 21205.94933103911, -0.034, 0.9400000000000001, 0.274, 192.0, 0.0, 0.0, 0.0, 0.0, 0.0, 0.0, 0.0, 0.0, 0.0, 1.657492423378934E9, 0.0, 2022-07-10 18:33:43.378
35.0, 25246.697693669525, 13933.988086460602, -23669.424494436324, -46318.60361321016, 5110.0558173723, 41322.07230592636, -20420.12905122388, 21862.42006569148, -0.034, 0.9400000000000001, 0.274, 192.0, 0.0, 0.0, 0.0, 0.0, 0.0, 0.0, 0.0, 0.0, 0.0, 1.657492423378994E9, 0.0, 2022-07-10 18:33:43.378
36.0, 26755.641610102848, 13790.892218457726, -23934.4491284429, -46268.69216784146, 4743.867187961005, 45647.04545105046, -20778.047535186714, 23701.20867505177, -0.034, 0.9400000000000001, 0.274, 192.0, 0.0, 0.0, 0.0, 0.0, 0.0, 0.0, 0.0, 0.0, 0.0, 1.657492423387032E9, 0.0, 2022-07-10 18:33:43.387
37.0, 26688.496969759104, 13712.102319252768, -24044.08443499618, -46819.57326168696, 4758.351118368044, 47341.173570296, -20784.484837589844, 23191.29832879285, -0.034, 0.9400000000000001, 0.274, 192.0, 0.0, 0.0, 0.0, 0.0, 0.0, 0.0, 0.0, 0.0, 0.0, 1.657492423387057E9, 0.0, 2022-07-10 18:33:43.387
38.0, 25245.267182024385, 13859.93675708017, -23801.14332451145, -46918.9267657908, 5100.601029467706, 43399.91282223616, -20455.936545841283, 21363.909109104767, -0.034, 0.9400000000000001, 0.274, 192.0, 0.0, 0.0, 0.0, 0.0, 0.0, 0.0, 0.0, 0.0, 0.0, 1.657492423394224E9, 0.0, 2022-07-10 18:33:43.394
39.0, 25065.894432770543, 13940.894775497292, -23654.11354948444, -46405.73071309694, 5140.811817742803, 41057.494706808895, -20395.09509743394, 21548.69098051679, -0.034, 0.9400000000000001, 0.274, 192.0, 0.0, 0.0, 0.0, 0.0, 0.0, 0.0, 0.0, 0.0, 0.0, 1.657492423400616E9, 0.0, 2022-07-10 18:33:43.400
40.0, 26547.859793646312, 13797.597741794318, -23880.022630694228, -46211.695219480425, 4786.08963323708, 44833.88898776639, -20737.277953300232, 23469.59989900588, -0.028, 0.9400000000000001, 0.274, 192.0, 255.0, 32.0, 29.0, 96.0, 8.0, 144.0, 0.0, 0.0, 0.0, 1.657492423400637E9, 0.0, 2022-07-10 18:33:43.400
41.0, 26874.619945838447, 13691.80693528735, -24048.085397253682, -46722.99137389557, 4717.3133155481, 47578.75026211146, -20811.64220710304, 23469.465788539146, -0.028, 0.9400000000000001, 0.274, 192.0, 0.0, 0.0, 0.0, 0.0, 0.0, 0.0, 0.0, 0.0, 0.0, 1.657492423408525E9, 0.0, 2022-07-10 18:33:43.408
42.0, 25487.7165541311, 13823.525765362474, -23836.30261853965, -46956.52239996462, 5057.1492382465885, 44281.487975297925, -20474.734362928197, 21609.75594636869, -0.028, 0.9400000000000001, 0.274, 192.0, 0.0, 0.0, 0.0, 0.0, 0.0, 0.0, 0.0, 0.0, 0.0, 1.657492423408544E9, 0.0, 2022-07-10 18:33:43.408
43.0, 24933.169774194932, 13951.80242679148, -23635.785119031087, -46500.703275287546, 5194.947742813557, 41021.46369474694, -20335.281829271535, 21296.96563446112, -0.028, 0.9400000000000001, 0.274, 192.0, 0.0, 0.0, 0.0, 0.0, 0.0, 0.0, 0.0, 0.0, 0.0, 1.657492423416845E9, 0.0, 2022-07-10 18:33:43.416
44.0, 26297.29673830232, 13844.670515617194, -23819.896438109452, -46175.9994835853, 4865.6171400090625, 43990.535317723195, -20654.442388348867, 23170.220633771496, -0.028, 0.9400000000000001, 0.274, 192.0, 0.0, 0.0, 0.0, 0.0, 0.0, 0.0, 0.0, 0.0, 0.0, 1.6574924234169E9, 0.0, 2022-07-10 18:33:43.416
45.0, 26989.01617396071, 13709.263647706945, -24047.526603642298, -46620.93330871264, 4698.515498461187, 47566.4791544055, -20826.729634610372, 23650.961953516242, -0.028, 0.9400000000000001, 0.274, 192.0, 0.0, 0.0, 0.0, 0.0, 0.0, 0.0, 0.0, 0.0, 0.0, 1.657492423424549E9, 0.0, 2022-07-10 18:33:43.424
46.0, 25743.912249077828, 13801.39753835172, -23898.95455824787, -46974.15792633986, 4991.435109547986, 45113.39755218, -20549.143320219915, 21880.882606611565, -0.028, 0.9400000000000001, 0.274, 192.0, 0.0, 0.0, 0.0, 0.0, 0.0, 0.0, 0.0, 0.0, 0.0, 1.657492423424577E9, 0.0, 2022-07-10 18:33:43.424
47.0, 24866.852148396036, 13960.43020015123, -23652.34776167247, -46605.30943933838, 5207.621181919716, 41185.19022288206, -20332.577268192443, 21115.581228206305, -0.028, 0.9400000000000001, 0.274, 192.0, 0.0, 0.0, 0.0, 0.0, 0.0, 0.0, 0.0, 0.0, 0.0, 1.657492423431219E9, 0.0, 2022-07-10 18:33:43.431
48.0, 26012.58021743062, 13898.94055115468, -23767.79452178413, -46171.57383818315, 4933.812312342205, 43131.848350983666, -20600.79820165613, 22816.75014695527, -0.028, 0.9400000000000001, 0.274, 192.0, 0.0, 0.0, 0.0, 0.0, 0.0, 0.0, 0.0, 0.0, 0.0, 1.657492423431249E9, 0.0, 2022-07-10 18:33:43.431
49.0, 27030.277494225204, 13733.448235207587, -24036.52954537029, -46516.48360687299, 4687.250219255712, 47325.214424754915, -20844.298105752245, 23767.4592456173, -0.028, 0.9400000000000001, 0.274, 192.0, 0.0, 0.0, 0.0, 0.0, 0.0, 0.0, 0.0, 0.0, 0.0, 1.657492423439254E9, 0.0, 2022-07-10 18:33:43.439
50.0, 26020.984473345816, 13786.690090500128, -23947.971933838362, -46962.512667478644, 4933.387629197554, 45879.771814319116, -20599.010062099704, 22198.09856392128, -0.03, 0.9380000000000001, 0.272, 192.0, 255.0, 16.0, 29.0, 80.0, 8.0, 128.0, 0.0, 0.0, 0.0, 1.657492423439331E9, 0.0, 2022-07-10 18:33:43.439
51.0, 24871.657773453924, 13952.249461680587, -23681.69560214229, -46707.03222835448, 5200.625085905205, 41540.001814365605, -20330.990294336116, 21029.482308564464, -0.03, 0.9380000000000001, 0.272, 192.0, 0.0, 0.0, 0.0, 0.0, 0.0, 0.0, 0.0, 0.0, 0.0, 1.65749242344648E9, 0.0, 2022-07-10 18:33:43.446
52.0, 25726.09790874695, 13908.931780926203, -23727.69549223131, -46203.11214960959, 4999.146461385067, 42354.49938231699, -20540.53789860462, 22440.503232539086, -0.03, 0.9380000000000001, 0.272, 192.0, 0.0, 0.0, 0.0, 0.0, 0.0, 0.0, 0.0, 0.0, 0.0, 1.65749242344651E9, 0.0, 2022-07-10 18:33:43.446
53.0, 27004.550636357148, 13734.543470685896, -24008.433402589966, -46419.0076493034, 4701.60003919602, 46885.60031480793, -20842.800538873737, 23798.751687854732, -0.03, 0.9380000000000001, 0.272, 192.0, 0.0, 0.0, 0.0, 0.0, 0.0, 0.0, 0.0, 0.0, 0.0, 1.657492423452957E9, 0.0, 2022-07-10 18:33:43.452
54.0, 26299.263691814387, 13750.10028482679, -23988.629757002564, -46931.823722341505, 4867.449983054398, 46577.14624132469, -20680.862150295037, 22547.545736735552, -0.03, 0.9380000000000001, 0.272, 192.0, 0.0, 0.0, 0.0, 0.0, 0.0, 0.0, 0.0, 0.0, 0.0, 1.657492423452977E9, 0.0, 2022-07-10 18:33:43.452
55.0, 24956.572050639636, 13921.538164798996, -23713.36802403546, -46809.492624937615, 5190.946780556057, 42109.077228197726, -20349.497538745112, 21039.58529705826, -0.03, 0.9380000000000001, 0.272, 192.0, 0.0, 0.0, 0.0, 0.0, 0.0, 0.0, 0.0, 0.0, 0.0, 1.657492423460933E9, 0.0, 2022-07-10 18:33:43.460
56.0, 25450.83617577984, 13938.61489756285, -23681.248567253184, -46257.762164802814, 5064.167686005555, 41686.62925799242, -20471.225139048714, 22045.83848069173, -0.03, 0.9380000000000001, 0.272, 192.0, 0.0, 0.0, 0.0, 0.0, 0.0, 0.0, 0.0, 0.0, 0.0, 1.657492423468947E9, 0.0, 2022-07-10 18:33:43.468
57.0, 26901.777315351646, 13769.322785058355, -23968.93787013744, -46324.236252812894, 4708.149100321424, 46241.17717041697, -20820.78407058526, 23739.988951681727, -0.03, 0.9380000000000001, 0.272, 192.0, 0.0, 0.0, 0.0, 0.0, 0.0, 0.0, 0.0, 0.0, 0.0, 1.657492423468968E9, 0.0, 2022-07-10 18:33:43.468
58.0, 26541.10956682081, 13732.040075306903, -24025.80070803174, -46878.335997859955, 4797.533726398197, 47089.42587249588, -20737.143842833502, 22884.2524152103, -0.03, 0.9380000000000001, 0.272, 192.0, 0.0, 0.0, 0.0, 0.0, 0.0, 0.0, 0.0, 0.0, 0.0, 1.657492423476165E9, 0.0, 2022-07-10 18:33:43.476
59.0, 25102.975976821897, 13891.251551062054, -23760.776074025165, -46875.38556759186, 5138.286070619353, 42816.44288497483, -20396.235036401158, 21157.46839731555, -0.03, 0.9380000000000001, 0.272, 192.0, 0.0, 0.0, 0.0, 0.0, 0.0, 0.0, 0.0, 0.0, 0.0, 1.657492423476237E9, 0.0, 2022-07-10 18:33:43.476
60.0, 25214.46647816497, 13958.127970472333, -23663.88126181141, -46339.65895648706, 5104.959619636491, 41268.51752621145, -20423.302998936535, 21712.730433074288, -0.036000000000000004, 0.9420000000000001, 0.262, 192.0, 254.0, 224.0, 29.0, 112.0, 8.0, 48.0, 0.0, 0.0, 0.0, 1.657492423483519E9, 0.0, 2022-07-10 18:33:43.483
61.0, 26725.37734811036, 13804.616189553284, -23920.993378280804, -46251.57073158869, 4750.818580486605, 45501.17796673512, -20778.606328798098, 23584.28669980606, -0.036000000000000004, 0.9420000000000001, 0.262, 192.0, 0.0, 0.0, 0.0, 0.0, 0.0, 0.0, 0.0, 0.0, 0.0, 1.65749242348357E9, 0.0, 2022-07-10 18:33:43.483
62.0, 26758.949668282232, 13729.044941549892, -24047.19132747547, -46800.77544460004, 4742.324917593589, 47485.856412155204, -20783.076677689158, 23199.479067263495, -0.036000000000000004, 0.9420000000000001, 0.262, 192.0, 0.0, 0.0, 0.0, 0.0, 0.0, 0.0, 0.0, 0.0, 0.0, 1.657492423491482E9, 0.0, 2022-07-10 18:33:43.491
63.0, 25302.979386207986, 13878.287539277977, -23808.362937970513, -46937.79163811108, 5095.43777649853, 43660.64592130732, -20444.00071430215, 21344.46309142865, -0.036000000000000004, 0.9420000000000001, 0.262, 192.0, 0.0, 0.0, 0.0, 0.0, 0.0, 0.0, 0.0, 0.0, 0.0, 1.657492423491513E9, 0.0, 2022-07-10 18:33:43.491
64.0, 25024.208429361395, 13984.301863229497, -23642.222421434217, -46423.098018538716, 5168.684443078571, 41060.08750916571, -20363.914413918785, 21412.72531899516, -0.036000000000000004, 0.9420000000000001, 0.262, 192.0, 0.0, 0.0, 0.0, 0.0, 0.0, 0.0, 0.0, 0.0, 0.0, 1.657492423499498E9, 0.0, 2022-07-10 18:33:43.499
65.0, 26497.188388966133, 13841.496567904542, -23862.521214785724, -46191.399835515, 4814.543403928686, 44660.37239555984, -20715.52970594522, 23341.27853408796, -0.036000000000000004, 0.9420000000000001, 0.262, 192.0, 0.0, 0.0, 0.0, 0.0, 0.0, 0.0, 0.0, 0.0, 0.0, 1.657492423499577E9, 0.0, 2022-07-10 18:33:43.499
66.0, 26927.10184181951, 13734.230546263523, -24044.33030418519, -46687.74267288955, 4717.425074270377, 47623.654916722175, -20816.64899786103, 23455.898279654775, -0.036000000000000004, 0.9420000000000001, 0.262, 192.0, 0.0, 0.0, 0.0, 0.0, 0.0, 0.0, 0.0, 0.0, 0.0, 1.657492423506137E9, 0.0, 2022-07-10 18:33:43.506
67.0, 25554.168290396727, 13845.631640628773, -23856.19567110487, -46954.44368773028, 5038.574938604229, 44493.673085412156, -20491.900502669872, 21603.363347454473, -0.036000000000000004, 0.9420000000000001, 0.262, 192.0, 0.0, 0.0, 0.0, 0.0, 0.0, 0.0, 0.0, 0.0, 0.0, 1.657492423506165E9, 0.0, 2022-07-10 18:33:43.506
68.0, 24907.59937853806, 13969.035621766523, -23657.153386730362, -46530.006412268456, 5180.21794321751, 41040.12740136712, -20353.967887636172, 21175.774476024446, -0.036000000000000004, 0.9420000000000001, 0.262, 192.0, 0.0, 0.0, 0.0, 0.0, 0.0, 0.0, 0.0, 0.0, 0.0, 1.657492423514067E9, 0.0, 2022-07-10 18:33:43.514
69.0, 26231.0908712257, 13873.951300853647, -23812.699176394843, -46171.19385852741, 4868.7240324883505, 43765.72147199172, -20657.728094783797, 23016.17241098552, -0.036000000000000004, 0.9420000000000001, 0.262, 192.0, 0.0, 0.0, 0.0, 0.0, 0.0, 0.0, 0.0, 0.0, 0.0, 1.657492423514092E9, 0.0, 2022-07-10 18:33:43.514
70.0, 27025.181296489394, 13725.759235114961, -24043.57034487371, -46589.327942052834, 4684.210382009791, 47559.41600315762, -20844.83454761917, 23636.835651020487, -0.04, 0.9440000000000001, 0.26, 192.0, 254.0, 192.0, 29.0, 128.0, 8.0, 32.0, 0.0, 0.0, 0.0, 1.657492423522733E9, 0.0, 2022-07-10 18:33:43.522
71.0, 25837.05196822309, 13810.807622767405, -23905.838895540106, -46969.575818726524, 4975.833591918182, 45377.48341291946, -20567.896433817918, 21904.37429003409, -0.04, 0.9440000000000001, 0.26, 192.0, 0.0, 0.0, 0.0, 0.0, 0.0, 0.0, 0.0, 0.0, 0.0, 1.657492423529164E9, 0.0, 2022-07-10 18:33:43.529
72.0, 24859.87840412598, 13972.947177046202, -23655.34289542948, -46630.34339312833, 5205.855394107747, 41286.242459564506, -20349.27402130056, 21009.03046238786, -0.04, 0.9440000000000001, 0.26, 192.0, 0.0, 0.0, 0.0, 0.0, 0.0, 0.0, 0.0, 0.0, 0.0, 1.657492423529187E9, 0.0, 2022-07-10 18:33:43.529
73.0, 25932.337454836066, 13908.84237394838, -23757.825643757064, -46175.32893125164, 4943.535321180263, 42936.382345722006, -20600.105297578015, 22645.513432683165, -0.04, 0.9440000000000001, 0.26, 192.0, 0.0, 0.0, 0.0, 0.0, 0.0, 0.0, 0.0, 0.0, 0.0, 1.657492423536281E9, 0.0, 2022-07-10 18:33:43.536
74.0, 27040.49224144128, 13755.53175872943, -24017.441155605455, -46480.3184843443, 4696.012103082193, 47276.21940090888, -20845.326285997187, 23733.439890556325, -0.04, 0.9440000000000001, 0.26, 192.0, 0.0, 0.0, 0.0, 0.0, 0.0, 0.0, 0.0, 0.0, 0.0, 1.657492423536317E9, 0.0, 2022-07-10 18:33:43.536
75.0, 26099.573206850673, 13808.326579132865, -23939.858250601086, -46939.84799860096, 4922.748198836827, 46124.61282308255, -20622.144117610947, 22236.901192295696, -0.04, 0.9440000000000001, 0.26, 192.0, 0.0, 0.0, 0.0, 0.0, 0.0, 0.0, 0.0, 0.0, 0.0, 1.657492423543789E9, 0.0, 2022-07-10 18:33:43.543
76.0, 24887.01342189472, 13967.403944421285, -23674.096009027482, -46720.64444072777, 5209.275211009409, 41711.283232126625, -20325.268247755557, 20972.61947067016, -0.04, 0.9440000000000001, 0.26, 192.0, 0.0, 0.0, 0.0, 0.0, 0.0, 0.0, 0.0, 0.0, 0.0, 1.657492423543809E9, 0.0, 2022-07-10 18:33:43.543
77.0, 25648.716169442676, 13942.749970287083, -23705.07552684254, -46206.733132211346, 5023.465159352441, 42178.837022642736, -20503.81398246455, 22276.307317770403, -0.04, 0.9440000000000001, 0.26, 192.0, 0.0, 0.0, 0.0, 0.0, 0.0, 0.0, 0.0, 0.0, 0.0, 1.657492423551818E9, 0.0, 2022-07-10 18:33:43.551
78.0, 26992.48069435128, 13760.87382565425, -23993.345975082633, -46380.585000584724, 4699.476623472765, 46755.13318242231, -20844.812195874714, 23738.46903305877, -0.04, 0.9440000000000001, 0.26, 192.0, 0.0, 0.0, 0.0, 0.0, 0.0, 0.0, 0.0, 0.0, 0.0, 1.657492423551845E9, 0.0, 2022-07-10 18:33:43.551
79.0, 26382.16631199912, 13755.017668606957, -23995.64820476153, -46908.08616972997, 4848.920386900948, 46779.5412873675, -20691.00984227775, 22591.399859356865, -0.04, 0.9440000000000001, 0.26, 192.0, 0.0, 0.0, 0.0, 0.0, 0.0, 0.0, 0.0, 0.0, 0.0, 1.657492423559269E9, 0.0, 2022-07-10 18:33:43.559
80.0, 24997.922777881955, 13921.627571776817, -23717.860724670976, -46810.56550867147, 5178.340396683264, 42332.3935070507, -20338.411073495277, 21024.274352106375, -0.04, 0.9420000000000001, 0.26, 192.0, 254.0, 192.0, 29.0, 112.0, 8.0, 32.0, 0.0, 0.0, 0.0, 1.657492423559329E9, 0.0, 2022-07-10 18:33:43.559
81.0, 25394.330965796828, 13957.166845460755, -23669.02216303613, -46262.47838288288, 5085.535953704829, 41613.6731640903, -20430.343798439957, 21919.037034396773, -0.04, 0.9420000000000001, 0.26, 192.0, 0.0, 0.0, 0.0, 0.0, 0.0, 0.0, 0.0, 0.0, 0.0, 1.657492423566344E9, 0.0, 2022-07-10 18:33:43.566
82.0, 26878.285631929117, 13795.139049904234, -23942.451052957902, -46283.73489185988, 4743.531911794175, 46114.442779355384, -20778.472218331364, 23664.44005542279, -0.04, 0.9420000000000001, 0.26, 192.0, 0.0, 0.0, 0.0, 0.0, 0.0, 0.0, 0.0, 0.0, 0.0, 1.657492423566363E9, 0.0, 2022-07-10 18:33:43.566
83.0, 26620.391204403782, 13756.314069785365, -24017.709376538918, -46837.61111946239, 4798.964238043337, 47272.62077005157, -20730.326560774633, 22929.179421565466, -0.04, 0.9420000000000001, 0.26, 192.0, 0.0, 0.0, 0.0, 0.0, 0.0, 0.0, 0.0, 0.0, 0.0, 1.657492423574379E9, 0.0, 2022-07-10 18:33:43.574
84.0, 25150.384026811604, 13909.915257682236, -23760.17257692487, -46878.42540483778, 5142.108218921211, 43056.90295182502, -20396.167981167793, 21145.934897176612, -0.04, 0.9420000000000001, 0.26, 192.0, 0.0, 0.0, 0.0, 0.0, 0.0, 0.0, 0.0, 0.0, 0.0, 1.657492423574403E9, 0.0, 2022-07-10 18:33:43.574
85.0, 25153.46856754644, 13965.012307764568, -23650.358456415946, -46340.62008149864, 5132.6981345055265, 41213.88986276268, -20400.23599865866, 21586.04074550161, -0.04, 0.9420000000000001, 0.26, 192.0, 0.0, 0.0, 0.0, 0.0, 0.0, 0.0, 0.0, 0.0, 0.0, 1.657492423582721E9, 0.0, 2022-07-10 18:33:43.582
86.0, 26671.1967195507, 13815.903820503214, -23901.88263677152, -46219.652440506514, 4777.70772906634, 45317.67014475705, -20745.413988281965, 23486.20724513617, -0.04, 0.9420000000000001, 0.26, 192.0, 0.0, 0.0, 0.0, 0.0, 0.0, 0.0, 0.0, 0.0, 0.0, 1.657492423589069E9, 0.0, 2022-07-10 18:33:43.589
87.0, 26811.58802647448, 13725.133386270212, -24043.86091755163, -46761.10109819187, 4743.50956004972, 47572.22355273051, -20785.53536957924, 23223.328378597307, -0.04, 0.9420000000000001, 0.26, 192.0, 0.0, 0.0, 0.0, 0.0, 0.0, 0.0, 0.0, 0.0, 0.0, 1.657492423589091E9, 0.0, 2022-07-10 18:33:43.589
88.0, 25375.466093476545, 13856.874568089792, -23816.94600784135, -46928.895643817865, 5089.849840384703, 43909.6667062839, -20447.152310270347, 21371.016963841554, -0.04, 0.9420000000000001, 0.26, 192.0, 0.0, 0.0, 0.0, 0.0, 0.0, 0.0, 0.0, 0.0, 0.0, 1.657492423596011E9, 0.0, 2022-07-10 18:33:43.596
89.0, 24987.864492877066, 13969.750877589093, -23637.662665565334, -46442.812257148296, 5186.454079920541, 41050.45390730547, -20343.30610553099, 21303.78291651999, -0.04, 0.9420000000000001, 0.26, 192.0, 0.0, 0.0, 0.0, 0.0, 0.0, 0.0, 0.0, 0.0, 0.0, 1.657492423596057E9, 0.0, 2022-07-10 18:33:43.596
90.0, 26419.60548396176, 13848.760884852516, -23847.81376693413, -46180.98392259883, 4831.530729714719, 44436.81024751786, -20695.34608070208, 23211.9289889251, -0.034, 0.9420000000000001, 0.264, 192.0, 254.0, 240.0, 29.0, 112.0, 8.0, 64.0, 0.0, 0.0, 0.0, 1.657492423604118E9, 0.0, 2022-07-10 18:33:43.604
91.0, 26952.314609565095, 13734.230546263523, -24049.873536810108, -46662.77577433298, 4704.326952019567, 47668.02312946595, -20835.580925414673, 23469.77871296152, -0.034, 0.9420000000000001, 0.264, 192.0, 0.0, 0.0, 0.0, 0.0, 0.0, 0.0, 0.0, 0.0, 0.0, 1.657492423604152E9, 0.0, 2022-07-10 18:33:43.604
92.0, 25618.518962683556, 13847.956222052124, -23867.550357288168, -46957.79644939857, 5025.096836697679, 44768.10780383442, -20531.77601477814, 21636.667446692878, -0.034, 0.9420000000000001, 0.264, 192.0, 0.0, 0.0, 0.0, 0.0, 0.0, 0.0, 0.0, 0.0, 0.0, 1.657492423611265E9, 0.0, 2022-07-10 18:33:43.611
93.0, 24879.525587502194, 13987.699328386705, -23657.287497197092, -46551.106459034265, 5183.794222330359, 41121.13012327315, -20356.940669648728, 21095.643472152173, -0.034, 0.9420000000000001, 0.264, 192.0, 0.0, 0.0, 0.0, 0.0, 0.0, 0.0, 0.0, 0.0, 0.0, 1.657492423611285E9, 0.0, 2022-07-10 18:33:43.611
94.0, 26151.74217840936, 13899.298179065965, -23799.221074488294, -46158.40866069897, 4885.309026874188, 43587.26514426055, -20629.18491711437, 22904.905427087, -0.034, 0.9420000000000001, 0.264, 192.0, 0.0, 0.0, 0.0, 0.0, 0.0, 0.0, 0.0, 0.0, 0.0, 1.657492423619138E9, 0.0, 2022-07-10 18:33:43.619
95.0, 27023.81784007762, 13743.059485323369, -24036.775414559295, -46546.03261304291, 4693.329893747556, 47536.03607845737, -20827.98133229987, 23638.512031854636, -0.034, 0.9420000000000001, 0.264, 192.0, 0.0, 0.0, 0.0, 0.0, 0.0, 0.0, 0.0, 0.0, 0.0, 1.657492423619171E9, 0.0, 2022-07-10 18:33:43.619
96.0, 25885.063515313093, 13811.63463731225, -23912.097383987595, -46945.12301029242, 4966.334100524677, 45591.43431084565, -20564.566023894076, 21959.963078494442, -0.034, 0.9420000000000001, 0.264, 192.0, 0.0, 0.0, 0.0, 0.0, 0.0, 0.0, 0.0, 0.0, 0.0, 1.657492423626665E9, 0.0, 2022-07-10 18:33:43.626
97.0, 24840.790014361148, 13966.845150809902, -23653.5324041286, -46636.71364029809, 5209.319914498319, 41379.33747522086, -20333.940724604217, 20968.48439794593, -0.034, 0.9420000000000001, 0.264, 192.0, 0.0, 0.0, 0.0, 0.0, 0.0, 0.0, 0.0, 0.0, 0.0, 1.657492423626697E9, 0.0, 2022-07-10 18:33:43.626
98.0, 25847.02084625016, 13913.46918505063, -23735.250381857204, -46155.905265319976, 4963.428373745486, 42740.7375265047, -20571.36095420849, 22540.3708267654, -0.034, 0.9420000000000001, 0.264, 192.0, 0.0, 0.0, 0.0, 0.0, 0.0, 0.0, 0.0, 0.0, 0.0, 1.657492423634739E9, 0.0, 2022-07-10 18:33:43.634
99.0, 27025.471869167315, 13750.86024413827, -24012.03203344727, -46438.85599837971, 4684.903286087905, 47174.407204914954, -20829.74712011184, 23726.868477686465, -0.034, 0.9420000000000001, 0.264, 192.0, 0.0, 0.0, 0.0, 0.0, 0.0, 0.0, 0.0, 0.0, 0.0, 1.657492423634782E9, 0.0, 2022-07-10 18:33:43.634
100.0, 26163.387437270576, 13785.237227110532, -23950.40827398399, -46915.28343144458, 4900.865841015082, 46312.79215965178, -20618.679597220373, 22312.271274598992, -0.032, 0.9440000000000001, 0.268, 192.0, 255.0, 0.0, 29.0, 128.0, 8.0, 96.0, 0.0, 0.0, 0.0, 1.657492423641098E9, 0.0, 2022-07-10 18:33:43.641
101.0, 24902.83845696908, 13952.540034358506, -23679.952166074774, -46724.80186519645, 5191.997312545456, 41874.60742886156, -20333.73955890412, 20961.376543209142, -0.032, 0.9440000000000001, 0.268, 192.0, 0.0, 0.0, 0.0, 0.0, 0.0, 0.0, 0.0, 0.0, 0.0, 1.65749242364898E9, 0.0, 2022-07-10 18:33:43.648
102.0, 25562.974877712117, 13950.036638979513, -23699.129962817427, -46203.98386764334, 5017.296077882776, 42058.517582239816, -20500.371813818434, 22168.035467628895, -0.032, 0.9440000000000001, 0.268, 192.0, 0.0, 0.0, 0.0, 0.0, 0.0, 0.0, 0.0, 0.0, 0.0, 1.657492423649001E9, 0.0, 2022-07-10 18:33:43.649
103.0, 26938.076548347064, 13790.333424846343, -23974.615213229088, -46344.531636778316, 4699.968361850782, 46634.09848619682, -20813.855029804115, 23699.97932910673, -0.032, 0.9440000000000001, 0.268, 192.0, 0.0, 0.0, 0.0, 0.0, 0.0, 0.0, 0.0, 0.0, 0.0, 1.65749242365641E9, 0.0, 2022-07-10 18:33:43.656
104.0, 26421.550085729374, 13791.16043939119, -23984.405277300513, -46868.52358204408, 4839.934985629915, 46936.74110612168, -20679.163417716434, 22647.726255384237, -0.032, 0.9440000000000001, 0.268, 192.0, 0.0, 0.0, 0.0, 0.0, 0.0, 0.0, 0.0, 0.0, 0.0, 1.657492423656462E9, 0.0, 2022-07-10 18:33:43.656
105.0, 25024.007263661297, 13951.981240747124, -23713.703300202287, -46806.07280803595, 5180.106184495233, 42538.23072173962, -20350.45866375669, 21017.904104936613, -0.032, 0.9440000000000001, 0.268, 192.0, 0.0, 0.0, 0.0, 0.0, 0.0, 0.0, 0.0, 0.0, 0.0, 1.657492423663539E9, 0.0, 2022-07-10 18:33:43.663
106.0, 25303.381717608183, 13988.079308042445, -23646.178680202804, -46263.908894528024, 5107.708884204493, 41477.12635721283, -20424.398234414846, 21773.527177992724, -0.032, 0.9440000000000001, 0.268, 192.0, 0.0, 0.0, 0.0, 0.0, 0.0, 0.0, 0.0, 0.0, 0.0, 1.657492423663558E9, 0.0, 2022-07-10 18:33:43.663
107.0, 26798.40049724585, 13818.027236226468, -23926.626017883544, -46249.916702499, 4734.904138434427, 45895.485090671194, -20790.78802952624, 23571.47915023317, -0.032, 0.9440000000000001, 0.268, 192.0, 0.0, 0.0, 0.0, 0.0, 0.0, 0.0, 0.0, 0.0, 0.0, 1.65749242367132E9, 0.0, 2022-07-10 18:33:43.671
108.0, 26654.768187376045, 13754.347116273299, -24014.4683735929, -46798.00382828758, 4785.910819281437, 47373.315378822736, -20743.134110347524, 22968.987878440366, -0.032, 0.9440000000000001, 0.268, 192.0, 0.0, 0.0, 0.0, 0.0, 0.0, 0.0, 0.0, 0.0, 0.0, 1.657492423671351E9, 0.0, 2022-07-10 18:33:43.671
109.0, 25196.294509922805, 13907.791841958982, -23764.642925815933, -46873.37391059088, 5137.324945607776, 43302.01218152192, -20403.85698126042, 21160.150606650186, -0.032, 0.9440000000000001, 0.268, 192.0, 0.0, 0.0, 0.0, 0.0, 0.0, 0.0, 0.0, 0.0, 0.0, 1.657492423679024E9, 0.0, 2022-07-10 18:33:43.679
110.0, 25088.223825481396, 14007.570029207473, -23636.165098686826, -46347.593825768694, 5147.226768401476, 41145.940559618546, -20395.206856156216, 21447.594040345437, -0.028, 0.9400000000000001, 0.264, 192.0, 255.0, 32.0, 29.0, 96.0, 8.0, 64.0, 0.0, 0.0, 0.0, 1.657492423679044E9, 0.0, 2022-07-10 18:33:43.679
111.0, 26594.373773857806, 13865.07765830489, -23884.76120051875, -46188.538812224724, 4774.80200228715, 45097.55016536119, -20748.38677029452, 23368.122979178785, -0.028, 0.9400000000000001, 0.264, 192.0, 0.0, 0.0, 0.0, 0.0, 0.0, 0.0, 0.0, 0.0, 0.0, 1.657492423686881E9, 0.0, 2022-07-10 18:33:43.686
112.0, 26836.130241886407, 13749.541491215408, -24030.51692611181, -46716.39760928126, 4741.788475726661, 47617.10585559677, -20778.941604964926, 23233.20784964655, -0.028, 0.9400000000000001, 0.264, 192.0, 0.0, 0.0, 0.0, 0.0, 0.0, 0.0, 0.0, 0.0, 0.0, 1.657492423686982E9, 0.0, 2022-07-10 18:33:43.686
113.0, 25420.482506809534, 13872.99017584207, -23814.800240373643, -46916.35631517843, 5081.177363536044, 44133.1170956036, -20448.068731793017, 21378.348336022897, -0.028, 0.9400000000000001, 0.264, 192.0, 0.0, 0.0, 0.0, 0.0, 0.0, 0.0, 0.0, 0.0, 0.0, 1.657492423693531E9, 0.0, 2022-07-10 18:33:43.693
114.0, 24934.354416651062, 13998.472869214162, -23629.414871861325, -46451.820010163785, 5185.35884444223, 41034.271244319825, -20346.703570688198, 21185.609243584782, -0.028, 0.9400000000000001, 0.264, 192.0, 0.0, 0.0, 0.0, 0.0, 0.0, 0.0, 0.0, 0.0, 0.0, 1.657492423693553E9, 0.0, 2022-07-10 18:33:43.693
115.0, 26329.59500904024, 13884.881303892293, -23823.38331024448, -46157.82751534313, 4843.3100990426665, 44193.690323077484, -20685.10898174155, 23078.198501848998, -0.028, 0.9400000000000001, 0.264, 192.0, 0.0, 0.0, 0.0, 0.0, 0.0, 0.0, 0.0, 0.0, 0.0, 1.65749242370065E9, 0.0, 2022-07-10 18:33:43.700
116.0, 26954.862708433, 13752.33545927232, -24034.406129647035, -46617.84876797781, 4705.064559586592, 47618.22344281953, -20820.78407058526, 23455.16067208775, -0.028, 0.9400000000000001, 0.264, 192.0, 0.0, 0.0, 0.0, 0.0, 0.0, 0.0, 0.0, 0.0, 0.0, 1.657492423700681E9, 0.0, 2022-07-10 18:33:43.700
117.0, 25675.292393600037, 13841.049533015435, -23874.38999109149, -46941.18910326828, 5007.70717951145, 44968.55824810961, -20533.139471189916, 21667.535205785658, -0.028, 0.9400000000000001, 0.264, 192.0, 0.0, 0.0, 0.0, 0.0, 0.0, 0.0, 0.0, 0.0, 0.0, 1.657492423708639E9, 0.0, 2022-07-10 18:33:43.708
118.0, 24858.850223881036, 13972.611900879372, -23652.437168650293, -46562.46114521756, 5189.136289255177, 41178.976437923484, -20345.898907887808, 21016.40653805811, -0.028, 0.9400000000000001, 0.264, 192.0, 0.0, 0.0, 0.0, 0.0, 0.0, 0.0, 0.0, 0.0, 0.0, 1.657492423716681E9, 0.0, 2022-07-10 18:33:43.716
119.0, 26063.653953510995, 13903.969693657124, -23766.878100261463, -46149.669128616944, 4917.2720214452775, 43374.29772309038, -20605.156791824913, 22758.009762526723, -0.028, 0.9400000000000001, 0.264, 192.0, 0.0, 0.0, 0.0, 0.0, 0.0, 0.0, 0.0, 0.0, 0.0, 1.657492423716708E9, 0.0, 2022-07-10 18:33:43.716
120.0, 27012.887837038976, 13751.351982516288, -24024.41489987551, -46517.48943537348, 4690.424166968366, 47457.87202809716, -20838.97839057188, 23593.853246432933, -0.04, 0.9440000000000001, 0.26, 192.0, 254.0, 192.0, 29.0, 128.0, 8.0, 32.0, 0.0, 0.0, 0.0, 1.657492423723848E9, 0.0, 2022-07-10 18:33:43.723
121.0, 25948.22954514379, 13823.905745018214, -23913.617302610553, -46938.685707889286, 4957.683975420472, 45766.6049321419, -20574.02081179867, 21969.797846054775, -0.04, 0.9440000000000001, 0.26, 192.0, 0.0, 0.0, 0.0, 0.0, 0.0, 0.0, 0.0, 0.0, 0.0, 1.657492423723905E9, 0.0, 2022-07-10 18:33:43.723
122.0, 24852.05529356662, 13991.566180177473, -23644.994037746674, -46646.883684025255, 5217.523004713417, 41469.28089490902, -20332.063178069973, 20892.734335986894, -0.04, 0.9440000000000001, 0.26, 192.0, 0.0, 0.0, 0.0, 0.0, 0.0, 0.0, 0.0, 0.0, 0.0, 1.657492423731229E9, 0.0, 2022-07-10 18:33:43.731
123.0, 25772.701295936266, 13960.027868751034, -23701.611006451967, -46155.5923408976, 4998.475909051408, 42527.59129137889, -20541.499023616198, 22373.112723006336, -0.04, 0.9440000000000001, 0.26, 192.0, 0.0, 0.0, 0.0, 0.0, 0.0, 0.0, 0.0, 0.0, 0.0, 1.65749242373125E9, 0.0, 2022-07-10 18:33:43.731
124.0, 27002.807200289633, 13786.801849222406, -23978.727934208862, -46395.67242809206, 4706.78564390965, 47006.009162188675, -20818.571247884185, 23646.849232536464, -0.04, 0.9440000000000001, 0.26, 192.0, 0.0, 0.0, 0.0, 0.0, 0.0, 0.0, 0.0, 0.0, 0.0, 1.657492423739774E9, 0.0, 2022-07-10 18:33:43.739
125.0, 26224.653568822574, 13785.684261999639, -23953.73868390783, -46896.75383529113, 4881.710396016883, 46452.78113517537, -20646.887498722972, 22318.12743164628, -0.04, 0.9440000000000001, 0.26, 192.0, 0.0, 0.0, 0.0, 0.0, 0.0, 0.0, 0.0, 0.0, 0.0, 1.657492423739797E9, 0.0, 2022-07-10 18:33:43.739
126.0, 24908.471096571815, 13964.252348453087, -23680.600366663977, -46745.8348567289, 5199.038112048878, 41983.013389469794, -20343.03788459753, 20878.384516046586, -0.04, 0.9440000000000001, 0.26, 192.0, 0.0, 0.0, 0.0, 0.0, 0.0, 0.0, 0.0, 0.0, 0.0, 1.657492423746463E9, 0.0, 2022-07-10 18:33:43.746
127.0, 25482.977984306573, 13991.990863322124, -23660.796721076575, -46202.06161762019, 5067.0957645292, 41824.33835558157, -20463.33497325599, 21988.81918058624, -0.04, 0.9440000000000001, 0.26, 192.0, 0.0, 0.0, 0.0, 0.0, 0.0, 0.0, 0.0, 0.0, 0.0, 1.65749242374654E9, 0.0, 2022-07-10 18:33:43.746
128.0, 26909.734536377735, 13820.217707183088, -23944.17213728096, -46302.17508103551, 4728.645649986941, 46394.66659959157, -20799.862837775094, 23605.029118660586, -0.04, 0.9440000000000001, 0.26, 192.0, 0.0, 0.0, 0.0, 0.0, 0.0, 0.0, 0.0, 0.0, 0.0, 1.657492423753904E9, 0.0, 2022-07-10 18:33:43.753
129.0, 26485.498426616006, 13784.097288143312, -23983.22063484438, -46838.66165145179, 4826.14395930099, 47020.42603736235, -20709.807659364662, 22665.227671292745, -0.04, 0.9440000000000001, 0.26, 192.0, 0.0, 0.0, 0.0, 0.0, 0.0, 0.0, 0.0, 0.0, 0.0, 1.657492423753936E9, 0.0, 2022-07-10 18:33:43.753
130.0, 25051.47755759687, 13933.317534126942, -23724.007454396185, -46819.43915122023, 5157.68738480656, 42680.9242583423, -20374.151512879314, 20978.743848650916, -0.038, 0.9400000000000001, 0.262, 192.0, 254.0, 208.0, 29.0, 96.0, 8.0, 48.0, 0.0, 0.0, 0.0, 1.657492423761902E9, 0.0, 2022-07-10 18:33:43.761
131.0, 25229.66566439458, 13990.225075510154, -23637.7297207987, -46282.1255662591, 5112.335695306742, 41329.47073334107, -20432.08723450747, 21618.04844356161, -0.038, 0.9400000000000001, 0.262, 192.0, 0.0, 0.0, 0.0, 0.0, 0.0, 0.0, 0.0, 0.0, 0.0, 1.657492423761923E9, 0.0, 2022-07-10 18:33:43.761
132.0, 26742.275266918572, 13848.22444298559, -23895.78061053522, -46223.34047834164, 4759.51340907972, 45634.662584622216, -20799.12523020807, 23448.03046560651, -0.038, 0.9400000000000001, 0.262, 192.0, 0.0, 0.0, 0.0, 0.0, 0.0, 0.0, 0.0, 0.0, 0.0, 1.657492423769022E9, 0.0, 2022-07-10 18:33:43.769
