%OpenBCI Raw EEG Data
%Number of channels = 8
%Sample Rate = 250 Hz
%Board = OpenBCI_GUI$BoardCytonSerial
Sample Index, EXG Channel 0, EXG Channel 1, EXG Channel 2, EXG Channel 3, EXG Channel 4, EXG Channel 5, EXG Channel 6, EXG Channel 7, Accel Channel 0, Accel Channel 1, Accel Channel 2, Other, Other, Other, Other, Other, Other, Other, Analog Channel 0, Analog Channel 1, Analog Channel 2, Timestamp, Other, Timestamp (Formatted)
77.0, 39636.63901527393, 32459.71738811939, -10256.07559157319, -36636.833743671625, 13122.440948777314, 13265.179188868904, -10625.080540785855, 8544.490759908052, 0.0, 0.0, 0.0, 192.0, 0.0, 0.0, 0.0, 0.0, 0.0, 0.0, 0.0, 0.0, 0.0, 1.657492972579683E9, 0.0, 2022-07-10 18:42:52.579
78.0, 39272.6185050748, 32494.787275169765, -10150.798875188693, -36471.94492482483, 13216.988827823261, 12782.560322589914, -10524.005952358955, 8512.103082192312, 0.0, 0.0, 0.0, 192.0, 0.0, 0.0, 0.0, 0.0, 0.0, 0.0, 0.0, 0.0, 0.0, 1.6574929725797E9, 0.0, 2022-07-10 18:42:52.579
79.0, 39736.64071996698, 32477.24115577235, -10150.284785066222, -36149.96804594613, 13133.013323904674, 14312.917210211423, -10596.38090090524, 9106.748891681302, 0.0, 0.0, 0.0, 192.0, 0.0, 0.0, 0.0, 0.0, 0.0, 0.0, 0.0, 0.0, 0.0, 1.657492972579708E9, 0.0, 2022-07-10 18:42:52.579
80.0, 40165.660103042144, 32451.290780459738, -10243.379800722576, -36274.914297451294, 13040.09712220396, 14971.712526287143, -10701.434099845184, 9205.856526596133, 0.0, 0.0, 0.0, 192.0, 0.0, 0.0, 0.0, 0.0, 0.0, 0.0, 0.0, 0.0, 0.0, 1.657492972579715E9, 0.0, 2022-07-10 18:42:52.579
81.0, 39778.52788907622, 32458.5103939188, -10265.083344588678, -36606.5918334236, 13118.93172489783, 13555.3495353877, -10643.744247406035, 8624.979391691613, 0.0, 0.0, 0.0, 192.0, 0.0, 0.0, 0.0, 0.0, 0.0, 0.0, 0.0, 0.0, 0.0, 1.657492972579722E9, 0.0, 2022-07-10 18:42:52.579
0.0, 0.0, 0.0, 0.0, 0.0, 0.0, 0.0, 0.0, 0.0, 0.0, 0.0, 0.0, 192.0, 0.0, 0.0, 0.0, 0.0, 0.0, 0.0, 0.0, 0.0, 0.0, 1.657492972657758E9, 0.0, 2022-07-10 18:42:52.657
1.0, 48945.06769717547, 35054.97843682509, -10715.269829663019, -34131.918446054275, 17597.550761407707, 47650.633472279726, -657.4989148973126, 36762.49525099937, 0.10400000000000001, 0.98, 0.138, 192.0, 3.0, 64.0, 30.0, 160.0, 4.0, 80.0, 0.0, 0.0, 0.0, 1.657492972680371E9, 0.0, 2022-07-10 18:42:52.680
2.0, 45147.036927585235, 34639.05717600074, -10309.786833499293, -34416.880836114986, 18028.157118339197, 41532.75984916209, -142.06768775793168, 33544.24638083534, 0.10400000000000001, 0.98, 0.138, 192.0, 0.0, 0.0, 0.0, 0.0, 0.0, 0.0, 0.0, 0.0, 0.0, 1.657492972680425E9, 0.0, 2022-07-10 18:42:52.680
3.0, 43943.01550901122, 34622.65099557054, -10128.134206311013, -33781.331334272785, 18183.83701847041, 38854.12679363809, -23.044648533421583, 32103.16236056833, 0.10400000000000001, 0.98, 0.138, 192.0, 0.0, 0.0, 0.0, 0.0, 0.0, 0.0, 0.0, 0.0, 0.0, 1.657492972686414E9, 0.0, 2022-07-10 18:42:52.686
4.0, 44731.74151560563, 34661.61008615614, -10251.98522233787, -33554.34936932914, 18052.43111281766, 40943.00907170881, -190.88389764832232, 33874.35929469577, 0.10400000000000001, 0.98, 0.138, 192.0, 0.0, 0.0, 0.0, 0.0, 0.0, 0.0, 0.0, 0.0, 0.0, 1.65749297268646E9, 0.0, 2022-07-10 18:42:52.686
5.0, 44287.858222467694, 34574.50533801381, -10315.0841969352, -33998.187958978175, 18020.244600802016, 40803.60124154106, -188.40285401378324, 34264.129014507416, 0.10400000000000001, 0.98, 0.138, 192.0, 0.0, 0.0, 0.0, 0.0, 0.0, 0.0, 0.0, 0.0, 0.0, 1.657492972693611E9, 0.0, 2022-07-10 18:42:52.693
6.0, 42499.1822241762, 34508.947671526395, -10133.05159009118, -34170.586963961956, 18218.146946209305, 36694.948279255426, 47.430401734161585, 31682.636640386183, 0.10400000000000001, 0.98, 0.138, 192.0, 0.0, 0.0, 0.0, 0.0, 0.0, 0.0, 0.0, 0.0, 0.0, 1.657492972693636E9, 0.0, 2022-07-10 18:42:52.693
7.0, 41944.143705862014, 34568.04568386623, -10012.709797943808, -33735.040871505844, 18317.165174146317, 34536.32855848414, 117.413713623728, 30056.256658584676, 0.10400000000000001, 0.98, 0.138, 192.0, 0.0, 0.0, 0.0, 0.0, 0.0, 0.0, 0.0, 0.0, 0.0, 1.6574929727033E9, 0.0, 2022-07-10 18:42:52.703
8.0, 43184.86668883165, 34632.91044627553, -10160.924215426949, -33460.4943943613, 18153.103369844364, 37154.097813856344, -86.88123069777855, 31750.787109230416, 0.124, 0.988, 0.108, 192.0, 3.0, 224.0, 30.0, 224.0, 3.0, 96.0, 0.0, 0.0, 0.0, 1.657492972703356E9, 0.0, 2022-07-10 18:42:52.703
9.0, 43483.28482905446, 34589.01162016531, -10281.98126339689, -33858.22133519904, 18063.070543178386, 38549.271351012154, -153.69059487469136, 32880.623087957276, 0.124, 0.988, 0.108, 192.0, 0.0, 0.0, 0.0, 0.0, 0.0, 0.0, 0.0, 0.0, 0.0, 1.657492972710916E9, 0.0, 2022-07-10 18:42:52.710
10.0, 42078.52239352732, 34521.73286935483, -10151.335317055622, -34148.61519916239, 18214.07892871844, 35477.538165752674, 37.30506149590749, 30849.832993725897, 0.124, 0.988, 0.108, 192.0, 0.0, 0.0, 0.0, 0.0, 0.0, 0.0, 0.0, 0.0, 0.0, 1.657492972710935E9, 0.0, 2022-07-10 18:42:52.710
11.0, 41361.54548663444, 34562.8600791526, -10006.540716474143, -33804.398334550664, 18335.583011577488, 33035.297159588, 139.8772168013116, 28918.172886153807, 0.124, 0.988, 0.108, 192.0, 0.0, 0.0, 0.0, 0.0, 0.0, 0.0, 0.0, 0.0, 0.0, 1.657492972717671E9, 0.0, 2022-07-10 18:42:52.717
12.0, 42513.80026504997, 34632.3740044086, -10123.127415553025, -33449.251466900285, 18199.55029482249, 35339.80671641907, -40.65782316420355, 30256.863565071057, 0.124, 0.988, 0.108, 192.0, 0.0, 0.0, 0.0, 0.0, 0.0, 0.0, 0.0, 0.0, 0.0, 1.657492972717713E9, 0.0, 2022-07-10 18:42:52.717
13.0, 43192.15335752408, 34589.12337888758, -10290.273760589811, -33779.94552611656, 18055.113322152298, 37616.622461870014, -175.59530444089228, 31881.321296849408, 0.124, 0.988, 0.108, 192.0, 0.0, 0.0, 0.0, 0.0, 0.0, 0.0, 0.0, 0.0, 0.0, 1.657492972726002E9, 0.0, 2022-07-10 18:42:52.726
14.0, 42075.571963259215, 34520.23530247633, -10198.475146111865, -34141.909675825795, 18164.905090916764, 35373.781367991134, -21.278860721452325, 30428.569665976724, 0.124, 0.988, 0.108, 192.0, 0.0, 0.0, 0.0, 0.0, 0.0, 0.0, 0.0, 0.0, 0.0, 1.657492972732503E9, 0.0, 2022-07-10 18:42:52.732
15.0, 41156.17765857907, 34554.96991335987, -10015.034379367158, -33901.31549850887, 18330.28564814158, 32538.797860002265, 138.5808156229038, 28259.77990147828, 0.124, 0.988, 0.108, 192.0, 0.0, 0.0, 0.0, 0.0, 0.0, 0.0, 0.0, 0.0, 0.0, 1.657492972732544E9, 0.0, 2022-07-10 18:42:52.732
16.0, 42068.03942537778, 34625.33320490518, -10082.782516811194, -33483.0026010278, 18235.42484467326, 34168.418844749795, -3.531575623938516, 29078.613707854, 0.124, 0.988, 0.108, 192.0, 0.0, 0.0, 0.0, 0.0, 0.0, 0.0, 0.0, 0.0, 0.0, 1.657492972739995E9, 0.0, 2022-07-10 18:42:52.739
17.0, 43045.16828598599, 34614.00087046634, -10265.239806799866, -33680.14498712361, 18065.976269957577, 37050.989216684015, -172.86839161734483, 31073.52925223461, 0.124, 0.988, 0.108, 192.0, 0.0, 0.0, 0.0, 0.0, 0.0, 0.0, 0.0, 0.0, 0.0, 1.657492972740015E9, 0.0, 2022-07-10 18:42:52.740
18.0, 42211.44821780303, 34549.069052823674, -10219.59754462213, -34101.20714917268, 18137.97123884812, 35632.25694087231, -55.36527101579559, 30209.813142992636, 0.136, 0.968, 0.094, 192.0, 4.0, 64.0, 30.0, 64.0, 2.0, 240.0, 0.0, 0.0, 0.0, 1.657492972746288E9, 0.0, 2022-07-10 18:42:52.746
19.0, 41110.02130627886, 34555.863983138086, -10044.069295414603, -33971.58938307636, 18309.18560137577, 32515.395583557558, 124.16394044923074, 27892.56309182204, 0.136, 0.968, 0.094, 192.0, 0.0, 0.0, 0.0, 0.0, 0.0, 0.0, 0.0, 0.0, 0.0, 1.657492972746316E9, 0.0, 2022-07-10 18:42:52.746
20.0, 41746.88956104393, 34616.63837631206, -10067.449220114853, -33520.86645613509, 18262.7610281421, 33402.73748668879, 29.481950936550017, 28205.509865940796, 0.136, 0.968, 0.094, 192.0, 0.0, 0.0, 0.0, 0.0, 0.0, 0.0, 0.0, 0.0, 0.0, 1.657492972752913E9, 0.0, 2022-07-10 18:42:52.752
21.0, 42898.4290836369, 34605.93189071797, -10260.50123697534, -33613.626195624616, 18072.368868871792, 36588.9339553039, -173.24837127308504, 30369.96339201491, 0.136, 0.968, 0.094, 192.0, 0.0, 0.0, 0.0, 0.0, 0.0, 0.0, 0.0, 0.0, 0.0, 1.657492972752933E9, 0.0, 2022-07-10 18:42:52.752
22.0, 42372.11255694778, 34538.34021548512, -10255.449742728442, -34050.02165437003, 18101.023805263496, 35999.74197146201, -104.13677741727561, 30106.65984233139, 0.136, 0.968, 0.094, 192.0, 0.0, 0.0, 0.0, 0.0, 0.0, 0.0, 0.0, 0.0, 0.0, 1.657492972760616E9, 0.0, 2022-07-10 18:42:52.760
23.0, 41181.01044666892, 34532.68522413793, -10079.765031309727, -34027.893427359275, 18271.724077668678, 32814.01488948046, 86.59065801985956, 27826.13370730087, 0.136, 0.968, 0.094, 192.0, 0.0, 0.0, 0.0, 0.0, 0.0, 0.0, 0.0, 0.0, 0.0, 1.657492972760663E9, 0.0, 2022-07-10 18:42:52.760
24.0, 41480.367360158845, 34597.661745269506, -10047.51146406072, -33589.642773824075, 18275.076839336973, 32825.57074136385, 53.93475937065594, 27542.668884118666, 0.136, 0.968, 0.094, 192.0, 0.0, 0.0, 0.0, 0.0, 0.0, 0.0, 0.0, 0.0, 0.0, 1.657492972769017E9, 0.0, 2022-07-10 18:42:52.769
25.0, 42713.02136338012, 34607.18358840747, -10228.78411159326, -33551.28718033876, 18090.898465025242, 36039.975111481566, -153.75765010805728, 29674.980601666048, 0.136, 0.968, 0.094, 192.0, 0.0, 0.0, 0.0, 0.0, 0.0, 0.0, 0.0, 0.0, 0.0, 1.657492972769072E9, 0.0, 2022-07-10 18:42:52.769
26.0, 42520.28227094201, 34545.24690452182, -10274.739298193372, -33984.620450093804, 18071.228929904573, 36315.34860317095, -140.39130692378367, 30021.164419789842, 0.136, 0.968, 0.094, 192.0, 0.0, 0.0, 0.0, 0.0, 0.0, 0.0, 0.0, 0.0, 0.0, 1.657492972784481E9, 0.0, 2022-07-10 18:42:52.784
27.0, 41302.98391616153, 34530.71827062586, -10109.71636887984, -34076.01673317155, 18246.064275033987, 33221.59894962299, 56.3487477718291, 27868.065579899023, 0.136, 0.968, 0.094, 192.0, 0.0, 0.0, 0.0, 0.0, 0.0, 0.0, 0.0, 0.0, 0.0, 1.657492972784751E9, 0.0, 2022-07-10 18:42:52.784
28.0, 41271.914991368656, 34587.13407363106, -10038.794283723151, -33663.98467588242, 18294.925188413286, 32403.525102558746, 73.91721891370045, 27032.31150297064, 0.146, 0.936, 0.09, 192.0, 4.0, 144.0, 29.0, 64.0, 2.0, 208.0, 0.0, 0.0, 0.0, 1.657492972790494E9, 0.0, 2022-07-10 18:42:52.790
29.0, 42514.202596450166, 34607.20594015192, -10205.180669448457, -33507.567168184185, 18119.30753222794, 35476.21941282981, -134.8033708099569, 29038.69349225682, 0.146, 0.936, 0.09, 192.0, 0.0, 0.0, 0.0, 0.0, 0.0, 0.0, 0.0, 0.0, 0.0, 1.657492972796852E9, 0.0, 2022-07-10 18:42:52.796
30.0, 42645.87672303638, 34551.63950343603, -10299.2815136053, -33918.14636208372, 18048.56426102689, 36575.679370841906, -176.6011329413811, 29958.69129403726, 0.146, 0.936, 0.09, 192.0, 0.0, 0.0, 0.0, 0.0, 0.0, 0.0, 0.0, 0.0, 0.0, 1.657492972796873E9, 0.0, 2022-07-10 18:42:52.796
31.0, 41480.993209003595, 34534.02632880525, -10149.927157154938, -34107.08565796443, 18210.592056583413, 33769.64137192266, 20.362439198784735, 28065.722056117305, 0.146, 0.936, 0.09, 192.0, 0.0, 0.0, 0.0, 0.0, 0.0, 0.0, 0.0, 0.0, 0.0, 1.657492972803384E9, 0.0, 2022-07-10 18:42:52.803
32.0, 41144.68886192905, 34583.35662881811, -10034.525100532186, -33751.87173508069, 18306.65985425232, 32202.13588501643, 97.25244012504103, 26741.53765935155, 0.146, 0.936, 0.09, 192.0, 0.0, 0.0, 0.0, 0.0, 0.0, 0.0, 0.0, 0.0, 0.0, 1.65749297280349E9, 0.0, 2022-07-10 18:42:52.803
33.0, 42293.27795425391, 34615.78901002276, -10164.72401198435, -33492.43503718794, 18154.757398934056, 34872.16351892513, -88.2670388540076, 28422.902932513112, 0.146, 0.936, 0.09, 192.0, 0.0, 0.0, 0.0, 0.0, 0.0, 0.0, 0.0, 0.0, 0.0, 1.657492972809458E9, 0.0, 2022-07-10 18:42:52.809
34.0, 42724.688973985794, 34565.4081780205, -10297.739243237882, -33844.29619840338, 18041.791682456933, 36691.48375886485, -182.5466969664928, 29819.75285050307, 0.146, 0.936, 0.09, 192.0, 0.0, 0.0, 0.0, 0.0, 0.0, 0.0, 0.0, 0.0, 0.0, 1.657492972809503E9, 0.0, 2022-07-10 18:42:52.809
35.0, 41684.81876669154, 34534.182791016436, -10186.382852361543, -34118.06036449198, 18171.63296599781, 34352.641922550436, -11.198223972108838, 28306.09271598968, 0.146, 0.936, 0.09, 192.0, 0.0, 0.0, 0.0, 0.0, 0.0, 0.0, 0.0, 0.0, 0.0, 1.657492972815876E9, 0.0, 2022-07-10 18:42:52.815
36.0, 41086.06023622277, 34577.32165781518, -10041.185920379869, -33833.36619536474, 18305.76578447411, 32175.738474814712, 114.61974556681461, 26603.49328559557, 0.146, 0.936, 0.09, 192.0, 0.0, 0.0, 0.0, 0.0, 0.0, 0.0, 0.0, 0.0, 0.0, 1.657492972815919E9, 0.0, 2022-07-10 18:42:52.815
37.0, 42062.2279718194, 34613.598539066144, -10137.946622126892, -33490.646897631515, 18187.368594094347, 34267.97351455373, -42.89299760973425, 27857.202632093744, 0.146, 0.936, 0.09, 192.0, 0.0, 0.0, 0.0, 0.0, 0.0, 0.0, 0.0, 0.0, 0.0, 1.657492972821896E9, 0.0, 2022-07-10 18:42:52.821
38.0, 42751.26519814315, 34572.18075659046, -10298.812126971738, -33763.9193253421, 18040.651743489714, 36663.02998817325, -179.39510099829448, 29626.320853986843, 0.162, 0.932, 0.088, 192.0, 5.0, 16.0, 29.0, 32.0, 2.0, 192.0, 0.0, 0.0, 0.0, 1.657492972821943E9, 0.0, 2022-07-10 18:42:52.821
39.0, 41883.86105106605, 34536.19444801741, -10212.64615209653, -34105.27516666355, 18146.17432906322, 34899.030315760414, -32.56649167138239, 28541.613047315248, 0.162, 0.932, 0.088, 192.0, 0.0, 0.0, 0.0, 0.0, 0.0, 0.0, 0.0, 0.0, 0.0, 1.657492972828894E9, 0.0, 2022-07-10 18:42:52.828
40.0, 41084.38385538862, 34565.54228848723, -10059.380240366489, -33917.028774860955, 18290.90187441133, 32309.558368868635, 112.22810891009676, 26610.243512421075, 0.162, 0.932, 0.088, 192.0, 0.0, 0.0, 0.0, 0.0, 0.0, 0.0, 0.0, 0.0, 0.0, 1.657492972828943E9, 0.0, 2022-07-10 18:42:52.828
41.0, 41827.75817248323, 34606.110704673614, -10118.120624795036, -33545.185154102466, 18207.12753619284, 33691.834949473734, -11.309982694385374, 27354.020160915872, 0.162, 0.932, 0.088, 192.0, 0.0, 0.0, 0.0, 0.0, 0.0, 0.0, 0.0, 0.0, 0.0, 1.6574929728352E9, 0.0, 2022-07-10 18:42:52.835
42.0, 42726.566520520035, 34574.661800224996, -10292.955969924447, -33711.16920842758, 18040.271763833975, 36497.67178269289, -180.89266787680006, 29374.304935253258, 0.162, 0.932, 0.088, 192.0, 0.0, 0.0, 0.0, 0.0, 0.0, 0.0, 0.0, 0.0, 0.0, 1.657492972835219E9, 0.0, 2022-07-10 18:42:52.835
43.0, 42090.99466693338, 34540.21776201937, -10244.966774578903, -34083.52691930853, 18108.668101867213, 35439.94253157885, -65.89294265424522, 28823.937931530232, 0.162, 0.932, 0.088, 192.0, 0.0, 0.0, 0.0, 0.0, 0.0, 0.0, 0.0, 0.0, 0.0, 1.657492972842416E9, 0.0, 2022-07-10 18:42:52.842
44.0, 41140.129106060165, 34571.77842519026, -10058.687336288374, -33972.72932204358, 18286.94561564274, 32563.7871103033, 126.24265268357429, 26750.97009551169, 0.162, 0.932, 0.088, 192.0, 0.0, 0.0, 0.0, 0.0, 0.0, 0.0, 0.0, 0.0, 0.0, 1.657492972851496E9, 0.0, 2022-07-10 18:42:52.851
45.0, 41630.749896854155, 34613.30796638822, -10064.118810191014, -33560.25022986534, 18256.659001905802, 33174.52617580011, 57.75690767251345, 26957.29904857863, 0.162, 0.932, 0.088, 192.0, 0.0, 0.0, 0.0, 0.0, 0.0, 0.0, 0.0, 0.0, 0.0, 1.657492972851514E9, 0.0, 2022-07-10 18:42:52.851
46.0, 42660.0700807655, 34594.0631144122, -10236.249594241333, -33612.9332915465, 18084.751735300033, 36169.45876711116, -125.6615073277363, 29054.339713375535, 0.162, 0.932, 0.088, 192.0, 0.0, 0.0, 0.0, 0.0, 0.0, 0.0, 0.0, 0.0, 0.0, 1.657492972858205E9, 0.0, 2022-07-10 18:42:52.858
47.0, 42293.27795425391, 34546.72211965587, -10246.799617624238, -34014.50473243055, 18097.715747084112, 35893.92881321059, -74.40895729171721, 29059.145338433427, 0.162, 0.932, 0.088, 192.0, 0.0, 0.0, 0.0, 0.0, 0.0, 0.0, 0.0, 0.0, 0.0, 1.65749297285823E9, 0.0, 2022-07-10 18:42:52.858
48.0, 41264.44950872058, 34560.200221562416, -10080.61439759903, -34019.82444761091, 18268.32661251147, 32971.59468789038, 112.27281239900738, 27012.73137482779, 0.146, 0.964, 0.074, 192.0, 4.0, 144.0, 30.0, 32.0, 2.0, 80.0, 0.0, 0.0, 0.0, 1.65749297286461E9, 0.0, 2022-07-10 18:42:52.864
49.0, 41462.28479889451, 34608.68115528597, -10043.979888436781, -33623.617425396136, 18279.793057417042, 32779.07911289681, 95.12902440178686, 26661.56311769046, 0.146, 0.964, 0.074, 192.0, 0.0, 0.0, 0.0, 0.0, 0.0, 0.0, 0.0, 0.0, 0.0, 1.657492972864629E9, 0.0, 2022-07-10 18:42:52.864
50.0, 42544.48921018711, 34604.07669592818, -10210.410977650998, -33572.230764893386, 18107.706976855636, 35751.190573119, -100.94047796016669, 28687.927566519687, 0.146, 0.964, 0.074, 192.0, 0.0, 0.0, 0.0, 0.0, 0.0, 0.0, 0.0, 0.0, 0.0, 1.657492972874166E9, 0.0, 2022-07-10 18:42:52.874
51.0, 42454.07640386539, 34565.36347453159, -10256.07559157319, -33961.91107772721, 18083.745906799544, 36233.943549864714, -96.04544592445446, 29207.896197783495, 0.146, 0.964, 0.074, 192.0, 0.0, 0.0, 0.0, 0.0, 0.0, 0.0, 0.0, 0.0, 0.0, 1.657492972874207E9, 0.0, 2022-07-10 18:42:52.874
52.0, 41406.98658311208, 34565.09525359813, -10110.945714824882, -34069.93705867971, 18231.155661482295, 33438.45557432837, 82.76850971800205, 27302.275872501836, 0.146, 0.964, 0.074, 192.0, 0.0, 0.0, 0.0, 0.0, 0.0, 0.0, 0.0, 0.0, 0.0, 1.657492972881249E9, 0.0, 2022-07-10 18:42:52.881
53.0, 41307.52132028596, 34611.296309387246, -10034.279231343178, -33710.58806307174, 18289.024327877087, 32473.08373130366, 112.27281239900738, 26417.45971649405, 0.146, 0.964, 0.074, 192.0, 0.0, 0.0, 0.0, 0.0, 0.0, 0.0, 0.0, 0.0, 0.0, 1.657492972881273E9, 0.0, 2022-07-10 18:42:52.881
54.0, 42377.231106428044, 34619.5217513468, -10179.520866813764, -33540.290122066755, 18135.26667776903, 35236.564008780006, -75.70535847012502, 28249.028712395277, 0.146, 0.964, 0.074, 192.0, 0.0, 0.0, 0.0, 0.0, 0.0, 0.0, 0.0, 0.0, 0.0, 1.657492972889263E9, 0.0, 2022-07-10 18:42:52.889
55.0, 42560.58246619493, 34569.67736121146, -10273.599359226151, -33905.58468169984, 18059.404857087717, 36454.30939844959, -125.86267302783406, 29266.055436856204, 0.146, 0.964, 0.074, 192.0, 0.0, 0.0, 0.0, 0.0, 0.0, 0.0, 0.0, 0.0, 0.0, 1.657492972889283E9, 0.0, 2022-07-10 18:42:52.889
56.0, 41567.02507341207, 34564.46940475338, -10139.265375049756, -34091.03710544552, 18206.501687348093, 33955.92081021319, 55.611140204803974, 27614.2168181201, 0.146, 0.964, 0.074, 192.0, 0.0, 0.0, 0.0, 0.0, 0.0, 0.0, 0.0, 0.0, 0.0, 1.657492972895854E9, 0.0, 2022-07-10 18:42:52.895
57.0, 41215.566243596826, 34602.64618428304, -10033.742789476251, -33786.427532008594, 18297.272121581093, 32346.863430364545, 129.39424865177259, 26315.848686200225, 0.14200000000000002, 0.974, 0.074, 192.0, 4.0, 112.0, 30.0, 112.0, 2.0, 80.0, 0.0, 0.0, 0.0, 1.657492972895905E9, 0.0, 2022-07-10 18:42:52.895
58.0, 42193.030380371856, 34608.83761749716, -10155.760962457773, -33530.276540550774, 18156.54553849048, 34709.71104022396, -46.759849400502375, 27826.468983467697, 0.14200000000000002, 0.974, 0.074, 192.0, 0.0, 0.0, 0.0, 0.0, 0.0, 0.0, 0.0, 0.0, 0.0, 1.657492972902298E9, 0.0, 2022-07-10 18:42:52.902
59.0, 42642.63572009036, 34566.056378609705, -10285.08815587618, -33836.9871779665, 18046.10556913681, 36584.977696535316, -145.82278082642327, 29282.6627829865, 0.14200000000000002, 0.974, 0.074, 192.0, 0.0, 0.0, 0.0, 0.0, 0.0, 0.0, 0.0, 0.0, 0.0, 1.657492972910588E9, 0.0, 2022-07-10 18:42:52.910
60.0, 41761.08291877305, 34551.527744713756, -10185.131154672046, -34105.45398061919, 18161.194701337183, 34551.61715169158, 7.9125175371787, 28000.343203585533, 0.14200000000000002, 0.974, 0.074, 192.0, 0.0, 0.0, 0.0, 0.0, 0.0, 0.0, 0.0, 0.0, 0.0, 1.657492972910613E9, 0.0, 2022-07-10 18:42:52.910
61.0, 41187.13482464967, 34598.287594114256, -10038.973097678792, -33858.914239277154, 18297.026252392086, 32408.8001142502, 133.39521090927255, 26365.715428080017, 0.14200000000000002, 0.974, 0.074, 192.0, 0.0, 0.0, 0.0, 0.0, 0.0, 0.0, 0.0, 0.0, 0.0, 1.657492972916948E9, 0.0, 2022-07-10 18:42:52.916
62.0, 42008.44967465993, 34622.76275429282, -10115.684284649407, -33525.42621200397, 18200.243198900604, 34195.44210379626, -5.677343091647994, 27444.991760848974, 0.14200000000000002, 0.974, 0.074, 192.0, 0.0, 0.0, 0.0, 0.0, 0.0, 0.0, 0.0, 0.0, 0.0, 1.657492972916971E9, 0.0, 2022-07-10 18:42:52.916
63.0, 42686.75806364514, 34580.85323343912, -10272.995862125857, -33749.14482225714, 18054.420418074184, 36591.10207451607, -147.1638854937417, 29240.12741328805, 0.14200000000000002, 0.974, 0.074, 192.0, 0.0, 0.0, 0.0, 0.0, 0.0, 0.0, 0.0, 0.0, 0.0, 1.657492972925481E9, 0.0, 2022-07-10 18:42:52.925
64.0, 41974.58678181014, 34552.421814491965, -10209.494556128331, -34083.07988441943, 18141.145186560774, 35148.43108039273, -23.715200867080792, 28413.604606819703, 0.14200000000000002, 0.974, 0.074, 192.0, 0.0, 0.0, 0.0, 0.0, 0.0, 0.0, 0.0, 0.0, 0.0, 1.657492972925517E9, 0.0, 2022-07-10 18:42:52.925
65.0, 41217.26497617543, 34588.05049515373, -10048.763161750217, -33926.19299008763, 18296.959197158718, 32606.344831746203, 134.84807429886752, 26550.519651236493, 0.14200000000000002, 0.974, 0.074, 192.0, 0.0, 0.0, 0.0, 0.0, 0.0, 0.0, 0.0, 0.0, 0.0, 1.65749297293429E9, 0.0, 2022-07-10 18:42:52.934
66.0, 41824.09248639256, 34616.683079800976, -10085.956464523848, -33550.72838672738, 18238.21881273017, 33693.08664716323, 37.90855859620078, 27120.064451702172, 0.14200000000000002, 0.974, 0.074, 192.0, 0.0, 0.0, 0.0, 0.0, 0.0, 0.0, 0.0, 0.0, 0.0, 1.657492972934309E9, 0.0, 2022-07-10 18:42:52.934
67.0, 42671.24595299315, 34580.182681105456, -10255.78501889527, -33672.43363528653, 18073.19588341664, 36426.59323532501, -133.61872835382562, 29107.246292501248, 0.136, 0.976, 0.064, 192.0, 4.0, 64.0, 30.0, 128.0, 2.0, 0.0, 0.0, 0.0, 0.0, 1.657492972940854E9, 0.0, 2022-07-10 18:42:52.940
68.0, 42161.04503405631, 34546.72211965587, -10230.59460289414, -34040.611569954344, 18118.34640721636, 35639.36479560909, -52.25837853650791, 28753.30641905146, 0.136, 0.976, 0.064, 192.0, 0.0, 0.0, 0.0, 0.0, 0.0, 0.0, 0.0, 0.0, 0.0, 1.657492972940917E9, 0.0, 2022-07-10 18:42:52.940
69.0, 41286.77890143143, 34578.55100376022, -10071.003147483249, -33976.48441511207, 18271.858188135408, 32904.94178592465, 113.01041996603252, 26809.330500284494, 0.136, 0.976, 0.064, 192.0, 0.0, 0.0, 0.0, 0.0, 0.0, 0.0, 0.0, 0.0, 0.0, 1.657492972949196E9, 0.0, 2022-07-10 18:42:52.949
70.0, 41657.34847275597, 34620.12524844709, -10060.296661889155, -33596.39300064957, 18257.597775172922, 33245.269447001156, 63.68011995316982, 26856.31386712955, 0.136, 0.976, 0.064, 192.0, 0.0, 0.0, 0.0, 0.0, 0.0, 0.0, 0.0, 0.0, 0.0, 1.657492972949269E9, 0.0, 2022-07-10 18:42:52.949
71.0, 42603.56487078248, 34595.38186733507, -10226.057198769713, -33614.02852702481, 18092.753659815033, 36086.578498670875, -116.36318163432857, 28858.60548718041, 0.136, 0.976, 0.064, 192.0, 0.0, 0.0, 0.0, 0.0, 0.0, 0.0, 0.0, 0.0, 0.0, 1.657492972957E9, 0.0, 2022-07-10 18:42:52.957
72.0, 42341.6918327441, 34559.44026225094, -10244.899719345536, -33988.91198502922, 18094.76531681601, 36028.910997976185, -82.79086146245736, 29024.567189761066, 0.136, 0.976, 0.064, 192.0, 0.0, 0.0, 0.0, 0.0, 0.0, 0.0, 0.0, 0.0, 0.0, 1.657492972957019E9, 0.0, 2022-07-10 18:42:52.957
73.0, 41397.12946380729, 34584.25069859633, -10088.146935480469, -34021.456124956145, 18258.111865295396, 33246.4987929462, 97.92299245870024, 27096.237492112818, 0.136, 0.976, 0.064, 192.0, 0.0, 0.0, 0.0, 0.0, 0.0, 0.0, 0.0, 0.0, 0.0, 1.657492972964307E9, 0.0, 2022-07-10 18:42:52.964
74.0, 41490.76092133056, 34626.83077178369, -10041.901176202438, -33649.70191117548, 18286.47622900918, 32810.5950725788, 96.47012906910528, 26585.656593520238, 0.136, 0.976, 0.064, 192.0, 0.0, 0.0, 0.0, 0.0, 0.0, 0.0, 0.0, 0.0, 0.0, 1.657492972964414E9, 0.0, 2022-07-10 18:42:52.964
75.0, 42479.35622684434, 34609.955204719925, -10196.418785621976, -33557.769186230806, 18123.889639841276, 35609.256995827796, -91.17276563319751, 28497.758924693935, 0.136, 0.976, 0.064, 192.0, 0.0, 0.0, 0.0, 0.0, 0.0, 0.0, 0.0, 0.0, 0.0, 1.657492972971279E9, 0.0, 2022-07-10 18:42:52.971
76.0, 42462.48065978059, 34568.80564317771, -10257.751972407339, -33923.309615052895, 18078.739116041557, 36278.781149242066, -105.56728906241526, 29159.6834849934, 0.136, 0.976, 0.064, 192.0, 0.0, 0.0, 0.0, 0.0, 0.0, 0.0, 0.0, 0.0, 0.0, 1.657492972977967E9, 0.0, 2022-07-10 18:42:52.977
77.0, 41512.28565124103, 34580.65206773902, -10113.1361857815, -34041.41623275474, 18231.04390276002, 33649.12076581964, 74.74423345854682, 27383.546815341335, 0.14, 0.974, 0.06, 192.0, 4.0, 96.0, 30.0, 112.0, 1.0, 224.0, 0.0, 0.0, 0.0, 1.657492972978055E9, 0.0, 2022-07-10 18:42:52.978
78.0, 41373.43661468466, 34621.68987055896, -10028.55718476262, -33701.222682144966, 18301.898932683343, 32544.989293216386, 122.55461484844862, 26431.742481200992, 0.14, 0.974, 0.06, 192.0, 0.0, 0.0, 0.0, 0.0, 0.0, 0.0, 0.0, 0.0, 0.0, 1.657492972985292E9, 0.0, 2022-07-10 18:42:52.985
79.0, 42328.1913790931, 34610.871626242595, -10161.147732871501, -33528.77897367227, 18160.881776914808, 35086.29323080698, -49.531465712960454, 28119.03096664321, 0.14, 0.974, 0.06, 192.0, 0.0, 0.0, 0.0, 0.0, 0.0, 0.0, 0.0, 0.0, 0.0, 1.657492972985326E9, 0.0, 2022-07-10 18:42:52.985
80.0, 42552.491134702104, 34560.71431168489, -10266.089173089167, -33860.63532360021, 18075.945147984643, 36431.22004642726, -111.78107402099062, 29221.284892712225, 0.14, 0.974, 0.06, 192.0, 0.0, 0.0, 0.0, 0.0, 0.0, 0.0, 0.0, 0.0, 0.0, 1.657492972993558E9, 0.0, 2022-07-10 18:42:52.993
81.0, 41670.468946751236, 34568.60447747761, -10147.759037942773, -34063.477404532125, 18210.167373438762, 34151.96796083068, 51.87839888076769, 27737.30787483548, 0.14, 0.974, 0.06, 192.0, 0.0, 0.0, 0.0, 0.0, 0.0, 0.0, 0.0, 0.0, 0.0, 1.657492972993635E9, 0.0, 2022-07-10 18:42:52.993
82.0, 41291.11513985576, 34618.38181237958, -10022.298696315134, -33780.72783717249, 18321.836688737476, 32423.395803379513, 149.60022563937017, 26368.442340903563, 0.14, 0.974, 0.06, 192.0, 0.0, 0.0, 0.0, 0.0, 0.0, 0.0, 0.0, 0.0, 0.0, 1.657492973000034E9, 0.0, 2022-07-10 18:42:53.000
83.0, 42149.757403106385, 34617.68890830146, -10130.01175284526, -33518.43011598946, 18200.377309367337, 34531.0535467927, -8.806587315390983, 27707.20007505418, 0.14, 0.974, 0.06, 192.0, 0.0, 0.0, 0.0, 0.0, 0.0, 0.0, 0.0, 0.0, 0.0, 1.657492973000126E9, 0.0, 2022-07-10 18:42:53.000
84.0, 42620.7086587797, 34575.622925236574, -10263.451667243442, -33793.33422104528, 18080.6166625758, 36486.07122732058, -119.35831539133972, 29219.474401411346, 0.14, 0.974, 0.06, 192.0, 0.0, 0.0, 0.0, 0.0, 0.0, 0.0, 0.0, 0.0, 0.0, 1.657492973007928E9, 0.0, 2022-07-10 18:42:53.007
85.0, 41848.008852959734, 34579.78034970527, -10168.121477141558, -34068.08186388992, 18190.475486573636, 34660.224277999914, 23.715200867080792, 28085.235129026787, 0.14, 0.974, 0.06, 192.0, 0.0, 0.0, 0.0, 0.0, 0.0, 0.0, 0.0, 0.0, 0.0, 1.657492973007977E9, 0.0, 2022-07-10 18:42:53.007
86.0, 41271.914991368656, 34629.535332862775, -10026.456120783821, -33848.61008508326, 18320.763805003622, 32455.068225272684, 147.76738259403498, 26415.358652515253, 0.14, 0.974, 0.06, 192.0, 0.0, 0.0, 0.0, 0.0, 0.0, 0.0, 0.0, 0.0, 0.0, 1.657492973016794E9, 0.0, 2022-07-10 18:42:53.016
87.0, 41977.559563822695, 34635.19032420997, -10101.647389131474, -33527.43786900495, 18231.535641138034, 33999.1267322453, 18.395485686717713, 27329.969683881962, 0.15, 0.966, 0.05, 192.0, 4.0, 176.0, 30.0, 48.0, 1.0, 144.0, 0.0, 0.0, 0.0, 1.657492973016851E9, 0.0, 2022-07-10 18:42:53.016
88.0, 42627.68240304976, 34586.99996316433, -10253.058106071723, -33722.97092949998, 18094.698261582646, 36387.36592380595, -120.38649563628384, 29089.208434725817, 0.15, 0.966, 0.05, 192.0, 0.0, 0.0, 0.0, 0.0, 0.0, 0.0, 0.0, 0.0, 0.0, 1.657492973024071E9, 0.0, 2022-07-10 18:42:53.024
89.0, 42011.757732839316, 34576.673457225974, -10193.82598326516, -34043.24907580007, 18171.722372975633, 35149.19103970421, -9.141863482220588, 28383.697972738504, 0.15, 0.966, 0.05, 192.0, 0.0, 0.0, 0.0, 0.0, 0.0, 0.0, 0.0, 0.0, 0.0, 1.657492973024107E9, 0.0, 2022-07-10 18:42:53.024
90.0, 41277.41352050466, 34619.94643449145, -10037.184958122369, -33911.86552189178, 18320.763805003622, 32613.74325916091, 143.85582731435625, 26519.20485725461, 0.15, 0.966, 0.05, 192.0, 0.0, 0.0, 0.0, 0.0, 0.0, 0.0, 0.0, 0.0, 0.0, 1.657492973030217E9, 0.0, 2022-07-10 18:42:53.030
91.0, 41792.50947147721, 34641.26999870181, -10064.923472991404, -33546.90623842552, 18270.293566023538, 33488.45642667489, 56.03582334945481, 26934.09793783402, 0.15, 0.966, 0.05, 192.0, 0.0, 0.0, 0.0, 0.0, 0.0, 0.0, 0.0, 0.0, 0.0, 1.657492973038855E9, 0.0, 2022-07-10 18:42:53.038
92.0, 42605.62123127237, 34604.25550988383, -10229.968754049392, -33650.08189083122, 18106.276465210496, 36194.515072645554, -116.4525886121498, 28874.85520539942, 0.15, 0.966, 0.05, 192.0, 0.0, 0.0, 0.0, 0.0, 0.0, 0.0, 0.0, 0.0, 0.0, 1.657492973038875E9, 0.0, 2022-07-10 18:42:53.038
93.0, 42182.10037733321, 34577.23225083736, -10215.350713175621, -34014.68354638619, 18139.22293653762, 35615.04609764172, -50.15731455770905, 28644.699292743124, 0.15, 0.966, 0.05, 192.0, 0.0, 0.0, 0.0, 0.0, 0.0, 0.0, 0.0, 0.0, 0.0, 1.657492973046505E9, 0.0, 2022-07-10 18:42:53.046
94.0, 41349.69906207312, 34618.44886761295, -10057.3238798766, -33972.90813599922, 18296.735679714166, 32932.94852172715, 122.39815263726148, 26732.216981913687, 0.15, 0.966, 0.05, 192.0, 0.0, 0.0, 0.0, 0.0, 0.0, 0.0, 0.0, 0.0, 0.0, 1.657492973046546E9, 0.0, 2022-07-10 18:42:53.046
95.0, 41630.05699277604, 34646.79087958227, -10043.197577380846, -33603.09852398617, 18289.80663893302, 33066.00845646959, 84.8472219523456, 26622.805192804957, 0.15, 0.966, 0.05, 192.0, 0.0, 0.0, 0.0, 0.0, 0.0, 0.0, 0.0, 0.0, 0.0, 1.657492973052462E9, 0.0, 2022-07-10 18:42:53.052
96.0, 42527.45718091216, 34607.98825120786, -10216.513003887298, -33602.427971652505, 18113.20550599164, 35859.48477500496, -104.96379196212196, 28570.513852895958, 0.15, 0.966, 0.05, 192.0, 0.0, 0.0, 0.0, 0.0, 0.0, 0.0, 0.0, 0.0, 0.0, 1.657492973052482E9, 0.0, 2022-07-10 18:42:53.052
97.0, 42330.47125702754, 34578.37218980458, -10246.531396690774, -33973.73515054407, 18106.142354743763, 36007.18510236563, -79.92983817217805, 28858.963115091698, 0.15, 0.96, 0.044, 192.0, 4.0, 176.0, 30.0, 0.0, 1.0, 96.0, 0.0, 0.0, 0.0, 1.657492973060441E9, 0.0, 2022-07-10 18:42:53.060
98.0, 41444.358699841345, 34622.271015914805, -10094.450127416865, -34023.579540679406, 18262.38104848636, 33339.05736673562, 96.49248081356059, 27012.59726436106, 0.15, 0.96, 0.044, 192.0, 0.0, 0.0, 0.0, 0.0, 0.0, 0.0, 0.0, 0.0, 0.0, 1.657492973060496E9, 0.0, 2022-07-10 18:42:53.060
99.0, 41476.96989500164, 34668.42736821501, -10029.3171440741, -33669.259687573875, 18305.65402575183, 32719.109382523227, 113.81508276642356, 26372.420951416607, 0.15, 0.96, 0.044, 192.0, 0.0, 0.0, 0.0, 0.0, 0.0, 0.0, 0.0, 0.0, 0.0, 1.657492973068174E9, 0.0, 2022-07-10 18:42:53.068
100.0, 42411.49633067803, 34649.36133019463, -10173.888227211026, -33548.78378495977, 18153.840977411386, 35406.48197012925, -58.65097745072573, 28196.368002458574, 0.15, 0.96, 0.044, 192.0, 0.0, 0.0, 0.0, 0.0, 0.0, 0.0, 0.0, 0.0, 0.0, 1.657492973068193E9, 0.0, 2022-07-10 18:42:53.068
101.0, 42453.00352013153, 34604.83665523966, -10250.688821159461, -33905.22705378855, 18091.658424336725, 36268.72286423718, -90.5245650439936, 28981.517729940148, 0.15, 0.96, 0.044, 192.0, 0.0, 0.0, 0.0, 0.0, 0.0, 0.0, 0.0, 0.0, 0.0, 1.657492973075581E9, 0.0, 2022-07-10 18:42:53.075
102.0, 41561.526544276065, 34622.963919992915, -10107.99528455678, -34043.80786941145, 18240.69985636471, 33766.40036897664, 91.39628307775058, 27293.223415997436, 0.15, 0.96, 0.044, 192.0, 0.0, 0.0, 0.0, 0.0, 0.0, 0.0, 0.0, 0.0, 0.0, 1.657492973075611E9, 0.0, 2022-07-10 18:42:53.075
103.0, 41368.027492526475, 34672.607144428155, -10005.73605367375, -33714.16434218459, 18324.72006377221, 32489.400504756035, 158.27270248802932, 26217.76923153034, 0.15, 0.96, 0.044, 192.0, 0.0, 0.0, 0.0, 0.0, 0.0, 0.0, 0.0, 0.0, 0.0, 1.657492973082707E9, 0.0, 2022-07-10 18:42:53.082
104.0, 42258.45393639254, 34653.40699594105, -10139.287726794211, -33512.39514498653, 18180.75247773558, 34896.07988549231, -18.0378577754328, 27796.11531449739, 0.15, 0.96, 0.044, 192.0, 0.0, 0.0, 0.0, 0.0, 0.0, 0.0, 0.0, 0.0, 0.0, 1.657492973082726E9, 0.0, 2022-07-10 18:42:53.082
105.0, 42537.58252115041, 34597.8182074807, -10251.2699665153, -33838.61885531174, 18085.399935889236, 36417.2949096316, -96.04544592445446, 29013.324262300048, 0.15, 0.96, 0.044, 192.0, 0.0, 0.0, 0.0, 0.0, 0.0, 0.0, 0.0, 0.0, 0.0, 1.657492973090247E9, 0.0, 2022-07-10 18:42:53.090
106.0, 41718.30167988559, 34604.74724826184, -10136.091427337102, -34060.30345681947, 18215.397681641305, 34283.08329380552, 70.74327120104685, 27634.780423018983, 0.15, 0.96, 0.044, 192.0, 0.0, 0.0, 0.0, 0.0, 0.0, 0.0, 0.0, 0.0, 0.0, 1.657492973097907E9, 0.0, 2022-07-10 18:42:53.097
107.0, 41303.09567488381, 34649.65190287255, -10012.061597354603, -33796.843444924765, 18333.14667143186, 32437.32094017517, 175.55060095198166, 26199.21728363243, 0.14, 0.984, 0.056, 192.0, 4.0, 96.0, 30.0, 192.0, 1.0, 192.0, 0.0, 0.0, 0.0, 1.657492973097944E9, 0.0, 2022-07-10 18:42:53.097
108.0, 42090.10059715517, 34651.17182149551, -10102.966142054336, -33515.63614793255, 18230.954495782196, 34363.594277333534, 33.90759633870081, 27402.366984172702, 0.14, 0.984, 0.056, 192.0, 0.0, 0.0, 0.0, 0.0, 0.0, 0.0, 0.0, 0.0, 0.0, 1.657492973104958E9, 0.0, 2022-07-10 18:42:53.104
109.0, 42590.600858998405, 34605.86483548461, -10240.183501265466, -33761.885316596665, 18105.382395432283, 36427.621415569956, -84.46724229660539, 28967.614944888945, 0.14, 0.984, 0.056, 192.0, 0.0, 0.0, 0.0, 0.0, 0.0, 0.0, 0.0, 0.0, 0.0, 1.657492973104977E9, 0.0, 2022-07-10 18:42:53.104
110.0, 41880.77651033122, 34606.73655351836, -10162.533541027731, -34056.92834340672, 18199.729108778134, 34785.438750438545, 43.67530866567, 27969.318982281566, 0.14, 0.984, 0.056, 192.0, 0.0, 0.0, 0.0, 0.0, 0.0, 0.0, 0.0, 0.0, 0.0, 1.657492973112893E9, 0.0, 2022-07-10 18:42:53.112
111.0, 41270.21625879005, 34654.770452352815, -10017.582478235065, -33871.87825106124, 18338.10875870094, 32473.888394104055, 177.83047888642298, 26235.00242650538, 0.14, 0.984, 0.056, 192.0, 0.0, 0.0, 0.0, 0.0, 0.0, 0.0, 0.0, 0.0, 0.0, 1.657492973112959E9, 0.0, 2022-07-10 18:42:53.112
112.0, 41904.31289724266, 34661.16305126704, -10076.23345568579, -33535.14922084203, 18260.83877811894, 33800.84440718227, 60.819096662890516, 26988.591490816056, 0.14, 0.984, 0.056, 192.0, 0.0, 0.0, 0.0, 0.0, 0.0, 0.0, 0.0, 0.0, 0.0, 1.657492973121004E9, 0.0, 2022-07-10 18:42:53.121
113.0, 42593.77480671106, 34615.16316117802, -10233.992068051348, -33701.78147575635, 18106.05294776594, 36285.50902432311, -92.82679472289023, 28820.31694892847, 0.14, 0.984, 0.056, 192.0, 0.0, 0.0, 0.0, 0.0, 0.0, 0.0, 0.0, 0.0, 0.0, 1.657492973121024E9, 0.0, 2022-07-10 18:42:53.121
114.0, 42037.03755581827, 34600.098085415135, -10190.92025648597, -34045.84187815689, 18168.906053174265, 35226.95275866422, 4.33623842432957, 28255.91304968751, 0.14, 0.984, 0.056, 192.0, 0.0, 0.0, 0.0, 0.0, 0.0, 0.0, 0.0, 0.0, 0.0, 1.657492973130592E9, 0.0, 2022-07-10 18:42:53.130
115.0, 41289.41640727716, 34644.89098130357, -10036.134426132969, -33941.6603972507, 18319.512107314124, 32644.856887442696, 161.84898160087843, 26376.913652052124, 0.14, 0.984, 0.056, 192.0, 0.0, 0.0, 0.0, 0.0, 0.0, 0.0, 0.0, 0.0, 0.0, 1.657492973130615E9, 0.0, 2022-07-10 18:42:53.130
116.0, 41726.7506392897, 34665.56634492473, -10048.740810005762, -33572.25311663784, 18284.621034219388, 33293.63862200244, 99.48761457057174, 26629.108384741354, 0.14, 0.984, 0.056, 192.0, 0.0, 0.0, 0.0, 0.0, 0.0, 0.0, 0.0, 0.0, 0.0, 1.657492973137069E9, 0.0, 2022-07-10 18:42:53.137
117.0, 42543.70689913117, 34621.73457404788, -10218.122329488078, -33641.588227938206, 18114.881886825788, 36014.47177105806, -80.84625969484564, 28568.479844150526, 0.128, 0.99, 0.066, 192.0, 4.0, 0.0, 30.0, 240.0, 2.0, 16.0, 0.0, 0.0, 0.0, 1.657492973137111E9, 0.0, 2022-07-10 18:42:53.137
118.0, 42192.29277280483, 34617.66655655701, -10216.423596909475, -34004.64761312576, 18140.049951082463, 35646.42794685697, -20.47419792106127, 28503.436267785582, 0.128, 0.99, 0.066, 192.0, 0.0, 0.0, 0.0, 0.0, 0.0, 0.0, 0.0, 0.0, 0.0, 1.657492973143144E9, 0.0, 2022-07-10 18:42:53.143
119.0, 41361.00904476751, 34660.224277999914, -10057.726211276795, -33988.21908095111, 18302.63654025037, 32972.48875766859, 158.58562691040362, 26612.858666522345, 0.128, 0.99, 0.066, 192.0, 0.0, 0.0, 0.0, 0.0, 0.0, 0.0, 0.0, 0.0, 0.0, 1.657492973143169E9, 0.0, 2022-07-10 18:42:53.143
120.0, 41569.0590821575, 34683.87242363363, -10033.943955176348, -33631.08290804421, 18308.827973464486, 32902.013707401005, 134.62455685431445, 26365.335448424274, 0.128, 0.99, 0.066, 192.0, 0.0, 0.0, 0.0, 0.0, 0.0, 0.0, 0.0, 0.0, 0.0, 1.657492973150623E9, 0.0, 2022-07-10 18:42:53.150
121.0, 42443.90636013822, 34643.50517314734, -10197.469317611376, -33604.75255307586, 18146.77782616351, 35624.05385065721, -49.15148605722023, 28252.62734325258, 0.128, 0.99, 0.066, 192.0, 0.0, 0.0, 0.0, 0.0, 0.0, 0.0, 0.0, 0.0, 0.0, 1.657492973157325E9, 0.0, 2022-07-10 18:42:53.157
122.0, 42310.64525969568, 34603.249681383335, -10245.726733890384, -33973.75750228852, 18119.01695955002, 35963.04040706639, -46.58103544485992, 28680.43973212716, 0.128, 0.99, 0.066, 192.0, 0.0, 0.0, 0.0, 0.0, 0.0, 0.0, 0.0, 0.0, 0.0, 1.657492973157345E9, 0.0, 2022-07-10 18:42:53.157
123.0, 41445.67745276421, 34633.49159163137, -10097.087633262592, -34052.34623579338, 18271.969946857687, 33371.28858224017, 131.40590565275022, 26897.731649605234, 0.128, 0.99, 0.066, 192.0, 0.0, 0.0, 0.0, 0.0, 0.0, 0.0, 0.0, 0.0, 0.0, 1.657492973164761E9, 0.0, 2022-07-10 18:42:53.164
124.0, 41424.13037110929, 34682.82189164423, -10017.426016023877, -33699.63570828864, 18332.744340031666, 32592.844378095197, 167.54867643698174, 26153.865594132614, 0.128, 0.99, 0.066, 192.0, 0.0, 0.0, 0.0, 0.0, 0.0, 0.0, 0.0, 0.0, 0.0, 1.657492973164798E9, 0.0, 2022-07-10 18:42:53.164
125.0, 42320.01064062246, 34651.931780807, -10163.226445105845, -33560.98783743237, 18182.11593414735, 35192.35225824741, -14.014543773477529, 27906.577635595517, 0.128, 0.99, 0.066, 192.0, 0.0, 0.0, 0.0, 0.0, 0.0, 0.0, 0.0, 0.0, 0.0, 1.657492973172699E9, 0.0, 2022-07-10 18:42:53.172
126.0, 42420.32526973788, 34605.88718722906, -10246.039658312757, -33905.29410902192, 18115.39597694826, 36220.107820046884, -56.3487477718291, 28807.88937901132, 0.128, 0.99, 0.066, 192.0, 0.0, 0.0, 0.0, 0.0, 0.0, 0.0, 0.0, 0.0, 0.0, 1.657492973172728E9, 0.0, 2022-07-10 18:42:53.172
127.0, 41585.48761433215, 34629.35651890714, -10113.538517181698, -34068.77476796803, 18254.379123971357, 33875.074550518344, 111.80342576544592, 27253.63847656709, 0.128, 0.99, 0.074, 192.0, 4.0, 0.0, 30.0, 240.0, 2.0, 80.0, 0.0, 0.0, 0.0, 1.657492973180845E9, 0.0, 2022-07-10 18:42:53.180
128.0, 41341.47362011357, 34675.401112485066, -10013.290943299646, -33773.552927202334, 18338.265220912126, 32471.876737103077, 174.41066198476102, 26105.898750531527, 0.128, 0.99, 0.074, 192.0, 0.0, 0.0, 0.0, 0.0, 0.0, 0.0, 0.0, 0.0, 0.0, 1.657492973180877E9, 0.0, 2022-07-10 18:42:53.180
129.0, 42166.320045747765, 34656.91621982053, -10131.688133679407, -33553.45529955093, 18206.702853048188, 34699.47394126343, 5.342066924818388, 27552.481299934545, 0.128, 0.99, 0.074, 192.0, 0.0, 0.0, 0.0, 0.0, 0.0, 0.0, 0.0, 0.0, 0.0, 1.657492973188792E9, 0.0, 2022-07-10 18:42:53.188
130.0, 42496.008276463544, 34610.9163297315, -10245.50321644583, -33837.92595123362, 18105.091822754363, 36342.885952339886, -82.23206785107469, 28861.131234303863, 0.128, 0.99, 0.074, 192.0, 0.0, 0.0, 0.0, 0.0, 0.0, 0.0, 0.0, 0.0, 0.0, 1.657492973188822E9, 0.0, 2022-07-10 18:42:53.188
131.0, 41723.73315378823, 34617.89007400156, -10137.544290726697, -34079.347143095394, 18229.881612048343, 34350.02676844916, 74.72188171409151, 27578.677544436163, 0.128, 0.99, 0.074, 192.0, 0.0, 0.0, 0.0, 0.0, 0.0, 0.0, 0.0, 0.0, 0.0, 1.65749297319541E9, 0.0, 2022-07-10 18:42:53.195
132.0, 41275.71478792605, 34653.20583024095, -10011.83807991005, -33836.5848465663, 18347.921174516818, 32405.22383513735, 179.66332193175816, 26070.426532080954, 0.128, 0.99, 0.074, 192.0, 0.0, 0.0, 0.0, 0.0, 0.0, 0.0, 0.0, 0.0, 0.0, 1.657492973195441E9, 0.0, 2022-07-10 18:42:53.195
133.0, 41998.950183266425, 34641.04648125726, -10101.71444436484, -33540.82656393368, 18243.113844765885, 34157.55589694451, 36.0757155508656, 27154.016751529784, 0.128, 0.99, 0.074, 192.0, 0.0, 0.0, 0.0, 0.0, 0.0, 0.0, 0.0, 0.0, 0.0, 1.657492973204689E9, 0.0, 2022-07-10 18:42:53.204
134.0, 42528.91004430176, 34585.39063756355, -10247.090190302157, -33767.09327305476, 18108.73515710058, 36320.98124277368, -94.88315521277848, 28800.89328299681, 0.128, 0.99, 0.074, 192.0, 0.0, 0.0, 0.0, 0.0, 0.0, 0.0, 0.0, 0.0, 0.0, 1.65749297320471E9, 0.0, 2022-07-10 18:42:53.204
135.0, 41887.14675750098, 34586.48587304186, -10173.754116744294, -34071.41227381376, 18200.869047745353, 34870.24126890198, 31.80653235990195, 27945.78259537013, 0.128, 0.99, 0.074, 192.0, 0.0, 0.0, 0.0, 0.0, 0.0, 0.0, 0.0, 0.0, 0.0, 1.657492973211121E9, 0.0, 2022-07-10 18:42:53.211
136.0, 41258.056909806364, 34638.81130681173, -10027.439597539855, -33912.62548120326, 18342.467348869723, 32497.067153104206, 175.12591780733084, 26170.89762340756, 0.128, 0.99, 0.074, 192.0, 0.0, 0.0, 0.0, 0.0, 0.0, 0.0, 0.0, 0.0, 0.0, 1.657492973211153E9, 0.0, 2022-07-10 18:42:53.211
137.0, 41814.391829298955, 34642.56639988022, -10074.400612640455, -33569.83912823667, 18276.6638131933, 33614.69907935847, 73.24666658004125, 26782.307241238028, 0.116, 0.978, 0.078, 192.0, 3.0, 160.0, 30.0, 144.0, 2.0, 112.0, 0.0, 0.0, 0.0, 1.657492973217518E9, 0.0, 2022-07-10 18:42:53.217
138.0, 42503.11613120033, 34585.94943117493, -10234.439102940452, -33708.24112990393, 18122.995570063063, 36129.31503406943, -85.16014637471991, 28627.71196695709, 0.116, 0.978, 0.078, 192.0, 0.0, 0.0, 0.0, 0.0, 0.0, 0.0, 0.0, 0.0, 0.0, 1.657492973225521E9, 0.0, 2022-07-10 18:42:53.225
139.0, 42027.73923012486, 34571.26433506779, -10200.911486257493, -34047.74177643559, 18179.83605621291, 35291.81752107353, 5.543232624916151, 28222.87717138257, 0.116, 0.978, 0.078, 192.0, 0.0, 0.0, 0.0, 0.0, 0.0, 0.0, 0.0, 0.0, 0.0, 1.657492973225565E9, 0.0, 2022-07-10 18:42:53.225
140.0, 41289.103482854785, 34620.68404205848, -10043.51050180322, -33972.23758366556, 18333.906630743342, 32706.502998650434, 171.5272869500264, 26357.802910542836, 0.116, 0.978, 0.078, 192.0, 0.0, 0.0, 0.0, 0.0, 0.0, 0.0, 0.0, 0.0, 0.0, 1.657492973233197E9, 0.0, 2022-07-10 18:42:53.233
141.0, 41636.60605390144, 34636.68789108848, -10043.51050180322, -33614.07323051372, 18312.404252577337, 33113.01417505911, 115.40205662275037, 26443.320684828843, 0.116, 0.978, 0.078, 192.0, 0.0, 0.0, 0.0, 0.0, 0.0, 0.0, 0.0, 0.0, 0.0, 1.657492973233217E9, 0.0, 2022-07-10 18:42:53.233
142.0, 42441.24650254804, 34583.89307068504, -10213.272000941277, -33656.45213800098, 18145.324962773917, 35821.82208559776, -68.21752407759716, 28373.23735633342, 0.116, 0.978, 0.078, 192.0, 0.0, 0.0, 0.0, 0.0, 0.0, 0.0, 0.0, 0.0, 0.0, 1.657492973239628E9, 0.0, 2022-07-10 18:42:53.239
143.0, 42162.140269534626, 34564.40234952001, -10217.78705332125, -34016.225816753606, 18161.529977504015, 35660.04015923025, -19.088389764832232, 28444.092386256743, 0.116, 0.978, 0.078, 192.0, 0.0, 0.0, 0.0, 0.0, 0.0, 0.0, 0.0, 0.0, 0.0, 1.65749297323965E9, 0.0, 2022-07-10 18:42:53.239
144.0, 41361.456079656615, 34607.20594015192, -10056.653327542941, -34021.053793555955, 18324.653008538844, 33029.64216824081, 160.01613855554325, 26588.49526506606, 0.116, 0.978, 0.078, 192.0, 0.0, 0.0, 0.0, 0.0, 0.0, 0.0, 0.0, 0.0, 0.0, 1.65749297324796E9, 0.0, 2022-07-10 18:42:53.247
145.0, 41504.753113359584, 34633.84921954265, -10020.89053641445, -33672.36658005316, 18345.35072390446, 32752.078205594804, 149.0861355168981, 26196.602129531162, 0.116, 0.978, 0.078, 192.0, 0.0, 0.0, 0.0, 0.0, 0.0, 0.0, 0.0, 0.0, 0.0, 1.657492973248004E9, 0.0, 2022-07-10 18:42:53.248
146.0, 42353.471202072054, 34588.22930910937, -10185.868762239072, -33616.621329381625, 18177.84675095639, 35426.48678141675, -39.20495977460859, 28043.906753528925, 0.116, 0.978, 0.078, 192.0, 0.0, 0.0, 0.0, 0.0, 0.0, 0.0, 0.0, 0.0, 0.0, 1.657492973255577E9, 0.0, 2022-07-10 18:42:53.255
147.0, 42302.66568692514, 34553.24882903681, -10245.190292023455, -33972.12582494329, 18134.976105091107, 35991.36006729127, -54.00181460402187, 28633.657530982204, 0.11800000000000001, 0.9560000000000001, 0.078, 192.0, 3.0, 176.0, 29.0, 224.0, 2.0, 112.0, 0.0, 0.0, 0.0, 1.657492973255597E9, 0.0, 2022-07-10 18:42:53.255
148.0, 41491.23030796413, 34597.88526271406, -10094.673644861417, -34065.444358044195, 18287.32559529848, 33493.06088603269, 123.60514683784805, 26928.308836020093, 0.11800000000000001, 0.9560000000000001, 0.078, 192.0, 0.0, 0.0, 0.0, 0.0, 0.0, 0.0, 0.0, 0.0, 0.0, 1.657492973263856E9, 0.0, 2022-07-10 18:42:53.263
149.0, 41412.88744364827, 34642.16406848002, -10018.253030568723, -33739.801793074825, 18341.26035466914, 32539.468412335926, 155.12110651983102, 26073.578128049154, 0.11800000000000001, 0.9560000000000001, 0.078, 192.0, 0.0, 0.0, 0.0, 0.0, 0.0, 0.0, 0.0, 0.0, 0.0, 1.657492973263899E9, 0.0, 2022-07-10 18:42:53.263
150.0, 42246.02636647539, 34605.73072501788, -10164.209921861879, -33589.95569824644, 18181.087753902408, 35001.73658153255, -31.828884104357257, 27717.951264137184, 0.11800000000000001, 0.9560000000000001, 0.078, 192.0, 0.0, 0.0, 0.0, 0.0, 0.0, 0.0, 0.0, 0.0, 0.0, 1.65749297327037E9, 0.0, 2022-07-10 18:42:53.270
151.0, 42402.600336384814, 34562.16717507448, -10257.751972407339, -33914.503027737504, 18101.873171552797, 36203.65693612778, -89.60814352132601, 28725.478497204604, 0.11800000000000001, 0.9560000000000001, 0.078, 192.0, 0.0, 0.0, 0.0, 0.0, 0.0, 0.0, 0.0, 0.0, 0.0, 1.657492973270397E9, 0.0, 2022-07-10 18:42:53.270
152.0, 41618.501140892644, 34587.89403294254, -10133.990363358304, -34091.19356765671, 18234.955458039698, 33992.53296763098, 76.9123526707116, 27257.63943882459, 0.11800000000000001, 0.9560000000000001, 0.078, 192.0, 0.0, 0.0, 0.0, 0.0, 0.0, 0.0, 0.0, 0.0, 0.0, 1.657492973277486E9, 0.0, 2022-07-10 18:42:53.277
153.0, 41321.401753592705, 34636.173800966004, -10017.023684623682, -33802.61019499424, 18339.718084301723, 32424.580445835647, 167.7945456259901, 25985.154626983956, 0.11800000000000001, 0.9560000000000001, 0.078, 192.0, 0.0, 0.0, 0.0, 0.0, 0.0, 0.0, 0.0, 0.0, 0.0, 1.657492973286178E9, 0.0, 2022-07-10 18:42:53.286
154.0, 42091.26288786685, 34607.67532678549, -10140.114741339057, -33567.335732857675, 18204.333568135928, 34514.468552406855, -1.4975668785055731, 27333.233038572438, 0.11800000000000001, 0.9560000000000001, 0.078, 192.0, 0.0, 0.0, 0.0, 0.0, 0.0, 0.0, 0.0, 0.0, 0.0, 1.657492973286222E9, 0.0, 2022-07-10 18:42:53.286
155.0, 42458.79262194546, 34552.60062844761, -10269.12901033509, -33845.68200655961, 18089.959691758122, 36308.821893789995, -102.75096926104656, 28738.55426771096, 0.11800000000000001, 0.9560000000000001, 0.078, 192.0, 0.0, 0.0, 0.0, 0.0, 0.0, 0.0, 0.0, 0.0, 0.0, 1.657492973292591E9, 0.0, 2022-07-10 18:42:53.292
156.0, 41767.52022117618, 34568.17979433296, -10172.211846376878, -34092.020582201556, 18198.946797722198, 34528.41604094697, 41.037802819943764, 27630.734757272574, 0.11800000000000001, 0.9560000000000001, 0.078, 192.0, 0.0, 0.0, 0.0, 0.0, 0.0, 0.0, 0.0, 0.0, 0.0, 1.657492973292619E9, 0.0, 2022-07-10 18:42:53.292
157.0, 41279.64869495019, 34629.08829797367, -10025.092664372047, -33875.38747494072, 18337.572316834012, 32453.81652758319, 179.26099053156264, 26040.38578753302, 0.12, 0.96, 0.088, 192.0, 3.0, 192.0, 30.0, 0.0, 2.0, 192.0, 0.0, 0.0, 0.0, 1.657492973299932E9, 0.0, 2022-07-10 18:42:53.299
158.0, 41921.88136838453, 34626.00375723884, -10099.881601319505, -33566.441663079466, 18249.37233321337, 33981.71472331461, 56.6393204497481, 26947.173708340375, 0.12, 0.96, 0.088, 192.0, 0.0, 0.0, 0.0, 0.0, 0.0, 0.0, 0.0, 0.0, 0.0, 1.657492973299958E9, 0.0, 2022-07-10 18:42:53.299
159.0, 42473.32125584141, 34569.56560248919, -10248.78892288076, -33766.93681084357, 18110.456241423635, 36225.561645693975, -79.16987886069762, 28623.755708188502, 0.12, 0.96, 0.088, 192.0, 0.0, 0.0, 0.0, 0.0, 0.0, 0.0, 0.0, 0.0, 0.0, 1.657492973308025E9, 0.0, 2022-07-10 18:42:53.308
160.0, 41910.169054289945, 34573.43245427996, -10184.550009316208, -34063.9914946546, 18187.949739450185, 34964.07389212536, 37.640337662737096, 27906.443525128787, 0.12, 0.96, 0.088, 192.0, 0.0, 0.0, 0.0, 0.0, 0.0, 0.0, 0.0, 0.0, 0.0, 1.657492973308064E9, 0.0, 2022-07-10 18:42:53.308
161.0, 41294.93728815762, 34626.33903340567, -10033.519272031697, -33915.17358007116, 18331.135014430885, 32579.20981397746, 190.5262697370374, 26159.252364546344, 0.12, 0.96, 0.088, 192.0, 0.0, 0.0, 0.0, 0.0, 0.0, 0.0, 0.0, 0.0, 0.0, 1.657492973316138E9, 0.0, 2022-07-10 18:42:53.316
162.0, 41774.3598549795, 34631.703452074944, -10071.807810283639, -33577.30461088474, 18279.36837427239, 33491.87624357656, 108.31655363041803, 26624.101593983367, 0.12, 0.96, 0.088, 192.0, 0.0, 0.0, 0.0, 0.0, 0.0, 0.0, 0.0, 0.0, 0.0, 1.657492973316174E9, 0.0, 2022-07-10 18:42:53.316
163.0, 42461.98892140257, 34578.707465971405, -10232.226280239378, -33690.650307017604, 18122.10150028485, 36029.335681120836, -53.554779714915725, 28456.899935829635, 0.12, 0.96, 0.088, 192.0, 0.0, 0.0, 0.0, 0.0, 0.0, 0.0, 0.0, 0.0, 0.0, 1.657492973322569E9, 0.0, 2022-07-10 18:42:53.322
164.0, 42068.64292247807, 34578.282782826755, -10202.498460113819, -34015.15293301975, 18166.11208511735, 35398.81532178108, 27.000907302010933, 28199.229025748853, 0.12, 0.96, 0.088, 192.0, 0.0, 0.0, 0.0, 0.0, 0.0, 0.0, 0.0, 0.0, 0.0, 1.657492973322591E9, 0.0, 2022-07-10 18:42:53.322
165.0, 41340.624253824266, 34629.80355379624, -10047.779684994184, -33957.88776372525, 18319.28858986957, 32825.458982641576, 198.21526982966304, 26356.193584942055, 0.12, 0.96, 0.088, 192.0, 0.0, 0.0, 0.0, 0.0, 0.0, 0.0, 0.0, 0.0, 0.0, 1.657492973330859E9, 0.0, 2022-07-10 18:42:53.330
166.0, 41620.266928704616, 34639.884190545585, -10042.683487258373, -33611.07809675671, 18305.47521179619, 33041.64505501331, 154.2046849971634, 26316.54159027834, 0.12, 0.96, 0.088, 192.0, 0.0, 0.0, 0.0, 0.0, 0.0, 0.0, 0.0, 0.0, 0.0, 1.657492973330932E9, 0.0, 2022-07-10 18:42:53.330
167.0, 42403.58381314085, 34581.993172406335, -10215.753044575817, -33631.19466676649, 18134.43966322418, 35717.819418647225, -33.617023660781825, 28198.424362948463, 0.112, 0.978, 0.096, 192.0, 3.0, 128.0, 30.0, 144.0, 3.0, 0.0, 0.0, 0.0, 0.0, 1.657492973337583E9, 0.0, 2022-07-10 18:42:53.337
168.0, 42203.33453456575, 34566.0116751208, -10228.493538915342, -33974.696275555645, 18138.910012115244, 35770.18955590601, -0.3352761668296059, 28426.255694181407, 0.112, 0.978, 0.096, 192.0, 0.0, 0.0, 0.0, 0.0, 0.0, 0.0, 0.0, 0.0, 0.0, 1.657492973344954E9, 0.0, 2022-07-10 18:42:53.344
169.0, 41417.96128963963, 34612.30213788774, -10074.490019618275, -34007.93331956069, 18296.310996569515, 33186.99844920617, 179.35039750938387, 26629.42130916373, 0.112, 0.978, 0.096, 192.0, 0.0, 0.0, 0.0, 0.0, 0.0, 0.0, 0.0, 0.0, 0.0, 1.657492973344986E9, 0.0, 2022-07-10 18:42:53.344
170.0, 41478.199240946684, 34646.63441737109, -10027.797225451139, -33673.528870764836, 18325.591781805968, 32679.546794837333, 185.38536851231677, 26075.96976470587, 0.112, 0.978, 0.096, 192.0, 0.0, 0.0, 0.0, 0.0, 0.0, 0.0, 0.0, 0.0, 0.0, 1.657492973352181E9, 0.0, 2022-07-10 18:42:53.352
171.0, 42298.62002117873, 34595.761846990805, -10193.11072744259, -33595.230709937896, 18157.104332101862, 35290.58817512848, -8.650125104203834, 27864.891632186373, 0.112, 0.978, 0.096, 192.0, 0.0, 0.0, 0.0, 0.0, 0.0, 0.0, 0.0, 0.0, 0.0, 1.657492973352202E9, 0.0, 2022-07-10 18:42:53.352
172.0, 42307.71718117204, 34557.31684652768, -10258.489579974364, -33937.19004835964, 18111.327959457394, 36041.495030104525, -34.26522424998573, 28587.970565315554, 0.112, 0.978, 0.096, 192.0, 0.0, 0.0, 0.0, 0.0, 0.0, 0.0, 0.0, 0.0, 0.0, 1.657492973360456E9, 0.0, 2022-07-10 18:42:53.360
173.0, 41524.53440720253, 34605.14957966204, -10106.832993845104, -34039.87396238732, 18270.919414868287, 33610.966338034435, 148.1697139942305, 26951.822871187076, 0.112, 0.978, 0.096, 192.0, 0.0, 0.0, 0.0, 0.0, 0.0, 0.0, 0.0, 0.0, 0.0, 1.657492973360535E9, 0.0, 2022-07-10 18:42:53.360
174.0, 41386.78060612448, 34646.90263830455, -10020.421149780888, -33728.98354875846, 18340.031008724094, 32472.86021385911, 194.81780467245636, 25979.56669087013, 0.112, 0.978, 0.096, 192.0, 0.0, 0.0, 0.0, 0.0, 0.0, 0.0, 0.0, 0.0, 0.0, 1.657492973369851E9, 0.0, 2022-07-10 18:42:53.369
175.0, 42180.78162441035, 34604.926062217484, -10159.806628204184, -33562.32894209969, 18189.089678417407, 34823.07908810128, 8.29249719291892, 27533.862296803272, 0.112, 0.978, 0.096, 192.0, 0.0, 0.0, 0.0, 0.0, 0.0, 0.0, 0.0, 0.0, 0.0, 1.657492973369871E9, 0.0, 2022-07-10 18:42:53.369
176.0, 42399.58285088335, 34558.79206166173, -10261.752934664839, -33867.89964054819, 18100.755584330032, 36207.546139663, -64.50713449801619, 28676.796397780945, 0.112, 0.978, 0.096, 192.0, 0.0, 0.0, 0.0, 0.0, 0.0, 0.0, 0.0, 0.0, 0.0, 1.657492973376163E9, 0.0, 2022-07-10 18:42:53.376
177.0, 41663.7857751591, 34587.84932945363, -10137.544290726697, -34063.25388708757, 18233.346132438914, 34100.13426543883, 98.23591688107454, 27316.044547086305, 0.106, 0.962, 0.096, 192.0, 3.0, 80.0, 30.0, 16.0, 3.0, 0.0, 0.0, 0.0, 0.0, 1.657492973376219E9, 0.0, 2022-07-10 18:42:53.376
178.0, 41335.03631771044, 34635.88322828808, -10023.662152726907, -33801.40320079365, 18336.00769472214, 32403.346288603105, 186.83823190191174, 25979.678449592408, 0.106, 0.962, 0.096, 192.0, 0.0, 0.0, 0.0, 0.0, 0.0, 0.0, 0.0, 0.0, 0.0, 1.657492973382992E9, 0.0, 2022-07-10 18:42:53.382
179.0, 42052.5273147258, 34608.904672730525, -10135.353819770076, -33557.478613552885, 18214.905943263286, 34344.34942535751, 27.62675614675953, 27208.733821956375, 0.106, 0.962, 0.096, 192.0, 0.0, 0.0, 0.0, 0.0, 0.0, 0.0, 0.0, 0.0, 0.0, 1.657492973383012E9, 0.0, 2022-07-10 18:42:53.383
180.0, 42462.99474990305, 34552.287704025235, -10268.74903067935, -33810.902692187155, 18093.223046448595, 36274.62372477337, -86.97063767559978, 28703.283214960484, 0.106, 0.962, 0.096, 192.0, 0.0, 0.0, 0.0, 0.0, 0.0, 0.0, 0.0, 0.0, 0.0, 1.657492973392926E9, 0.0, 2022-07-10 18:42:53.392
181.0, 41822.170236369406, 34572.918364157485, -10177.978596446348, -34072.75337848108, 18197.248065143594, 34630.13882996307, 51.498419225027476, 27709.703470433175, 0.106, 0.962, 0.096, 192.0, 0.0, 0.0, 0.0, 0.0, 0.0, 0.0, 0.0, 0.0, 0.0, 1.657492973392963E9, 0.0, 2022-07-10 18:42:53.392
182.0, 41314.539768044924, 34634.40801315403, -10033.005181909226, -33876.57211739685, 18333.705465043244, 32459.851498586122, 186.23473480161846, 26072.169968148468, 0.106, 0.962, 0.096, 192.0, 0.0, 0.0, 0.0, 0.0, 0.0, 0.0, 0.0, 0.0, 0.0, 1.657492973399462E9, 0.0, 2022-07-10 18:42:53.399
183.0, 41888.44315867939, 34622.829809526185, -10102.452051931865, -33572.18606140448, 18251.272231492072, 33806.0300118959, 70.74327120104685, 26841.919343700334, 0.106, 0.962, 0.096, 192.0, 0.0, 0.0, 0.0, 0.0, 0.0, 0.0, 0.0, 0.0, 0.0, 1.657492973405345E9, 0.0, 2022-07-10 18:42:53.405
184.0, 42462.70417722514, 34558.099157583616, -10262.378783509586, -33745.41208093311, 18099.012148262518, 36158.55111581697, -81.76268121751323, 28583.768437357958, 0.106, 0.962, 0.096, 192.0, 0.0, 0.0, 0.0, 0.0, 0.0, 0.0, 0.0, 0.0, 0.0, 1.657492973405464E9, 0.0, 2022-07-10 18:42:53.405
185.0, 41965.08729041664, 34567.19631757693, -10209.807480550704, -34060.07993937492, 18165.575643250424, 35098.40787630175, 17.05438101939929, 28028.305235899123, 0.106, 0.962, 0.096, 192.0, 0.0, 0.0, 0.0, 0.0, 0.0, 0.0, 0.0, 0.0, 0.0, 1.657492973412808E9, 0.0, 2022-07-10 18:42:53.412
186.0, 41327.12380017326, 34624.55089384924, -10054.284042630678, -33945.39313857474, 18315.399386334346, 32636.206762338494, 172.30959800596216, 26232.90136252658, 0.106, 0.962, 0.096, 192.0, 0.0, 0.0, 0.0, 0.0, 0.0, 0.0, 0.0, 0.0, 0.0, 1.657492973412852E9, 0.0, 2022-07-10 18:42:53.412
187.0, 41727.085915456526, 34625.84729502765, -10071.338423650077, -33600.259852440344, 18277.200255060226, 33321.08656419356, 103.93561171717784, 26514.667453130183, 0.11, 0.9460000000000001, 0.09, 192.0, 3.0, 112.0, 29.0, 144.0, 2.0, 208.0, 0.0, 0.0, 0.0, 1.657492973420564E9, 0.0, 2022-07-10 18:42:53.420
188.0, 42428.39424948624, 34558.099157583616, -10244.40798096752, -33686.58228952674, 18105.561209387924, 35927.76935431592, -75.77241370349094, 28393.66685076557, 0.11, 0.9460000000000001, 0.09, 192.0, 0.0, 0.0, 0.0, 0.0, 0.0, 0.0, 0.0, 0.0, 0.0, 1.657492973420584E9, 0.0, 2022-07-10 18:42:53.420
189.0, 42092.89456521208, 34549.98547434634, -10232.203928494922, -34028.54162794848, 18131.422177722714, 35498.571157285114, -13.813378073379765, 28287.16078843603, 0.11, 0.9460000000000001, 0.09, 192.0, 0.0, 0.0, 0.0, 0.0, 0.0, 0.0, 0.0, 0.0, 0.0, 1.65749297342764E9, 0.0, 2022-07-10 18:42:53.427
190.0, 41386.28886774646, 34609.86579774211, -10070.444353871866, -33989.56018561842, 18293.360566301413, 32939.74345204156, 158.38446121030586, 26481.206891680587, 0.11, 0.9460000000000001, 0.09, 192.0, 0.0, 0.0, 0.0, 0.0, 0.0, 0.0, 0.0, 0.0, 0.0, 1.657492973427661E9, 0.0, 2022-07-10 18:42:53.427
191.0, 41593.71305629171, 34623.70152755994, -10049.523121061698, -33647.35497800767, 18299.507296026622, 32938.08942295187, 133.68578358719154, 26283.572767206762, 0.11, 0.9460000000000001, 0.09, 192.0, 0.0, 0.0, 0.0, 0.0, 0.0, 0.0, 0.0, 0.0, 0.0, 1.65749297343652E9, 0.0, 2022-07-10 18:42:53.436
192.0, 42357.91919921866, 34568.917401899984, -10209.986294506347, -33635.93323659101, 18137.412445236736, 35584.75948390478, -47.56451220089343, 28127.05524290267, 0.11, 0.9460000000000001, 0.09, 192.0, 0.0, 0.0, 0.0, 0.0, 0.0, 0.0, 0.0, 0.0, 0.0, 1.657492973436576E9, 0.0, 2022-07-10 18:42:53.436
193.0, 42214.21983411549, 34551.61715169158, -10240.02703905428, -33976.037380222966, 18124.135509030286, 35827.924111834065, -28.632584647248347, 28483.319697775805, 0.11, 0.9460000000000001, 0.09, 192.0, 0.0, 0.0, 0.0, 0.0, 0.0, 0.0, 0.0, 0.0, 0.0, 1.657492973444574E9, 0.0, 2022-07-10 18:42:53.444
194.0, 41469.325598397925, 34610.80457100923, -10091.320883193122, -34025.01005232454, 18276.127371326373, 33315.69979377983, 147.27564421601824, 26758.882613048867, 0.11, 0.9460000000000001, 0.09, 192.0, 0.0, 0.0, 0.0, 0.0, 0.0, 0.0, 0.0, 0.0, 0.0, 1.65749297344463E9, 0.0, 2022-07-10 18:42:53.444
195.0, 41483.854232293874, 34648.489612160876, -10034.03336215417, -33697.512292565385, 18315.15351714534, 32636.765555949874, 167.36986248133928, 26093.180607936458, 0.11, 0.9460000000000001, 0.09, 192.0, 0.0, 0.0, 0.0, 0.0, 0.0, 0.0, 0.0, 0.0, 0.0, 1.657492973459707E9, 0.0, 2022-07-10 18:42:53.459
196.0, 42272.26731446592, 34597.57233829169, -10184.617064549573, -33588.45813136794, 18159.250099569574, 35159.49519389811, -12.136997239231736, 27804.251349479124, 0.11, 0.9460000000000001, 0.09, 192.0, 0.0, 0.0, 0.0, 0.0, 0.0, 0.0, 0.0, 0.0, 0.0, 1.657492973459744E9, 0.0, 2022-07-10 18:42:53.459
197.0, 42335.03101289643, 34554.589933704134, -10258.958966607925, -33916.09000159383, 18107.48345941108, 36090.646516161745, -41.86481736479013, 28641.927676430667, 0.106, 0.9560000000000001, 0.098, 192.0, 3.0, 80.0, 29.0, 224.0, 3.0, 16.0, 0.0, 0.0, 0.0, 1.657492973471859E9, 0.0, 2022-07-10 18:42:53.471
198.0, 41583.274791631084, 34597.79585573624, -10116.868927105537, -34042.95850312215, 18260.257632763103, 33761.95237183003, 139.8772168013116, 27082.915852417453, 0.106, 0.9560000000000001, 0.098, 192.0, 0.0, 0.0, 0.0, 0.0, 0.0, 0.0, 0.0, 0.0, 0.0, 1.657492973478426E9, 0.0, 2022-07-10 18:42:53.478
199.0, 41391.519175949004, 34640.04065275677, -10020.532908503164, -33748.116642012195, 18345.842462282475, 32450.776690337265, 208.8547001903892, 25993.983566043804, 0.106, 0.9560000000000001, 0.098, 192.0, 0.0, 0.0, 0.0, 0.0, 0.0, 0.0, 0.0, 0.0, 0.0, 1.657492973478458E9, 0.0, 2022-07-10 18:42:53.478
200.0, 42133.70885058747, 34589.615117265595, -10154.710430468373, -33563.155956644536, 18203.30538789098, 34658.52554542131, 33.39350621622875, 27438.42034797911, 0.106, 0.9560000000000001, 0.098, 192.0, 0.0, 0.0, 0.0, 0.0, 0.0, 0.0, 0.0, 0.0, 0.0, 1.657492973484833E9, 0.0, 2022-07-10 18:42:53.484
201.0, 42396.319496192875, 34533.132259027036, -10267.542036478762, -33851.00172173998, 18101.694357597156, 36203.72399136114, -48.23506453455264, 28679.992697238053, 0.106, 0.9560000000000001, 0.098, 192.0, 0.0, 0.0, 0.0, 0.0, 0.0, 0.0, 0.0, 0.0, 0.0, 1.657492973484873E9, 0.0, 2022-07-10 18:42:53.484
202.0, 41710.41151409287, 34558.568544217174, -10164.925177684448, -34066.070206888944, 18217.9010770203, 34271.12511052193, 103.33211461688455, 27458.067531355326, 0.106, 0.9560000000000001, 0.098, 192.0, 0.0, 0.0, 0.0, 0.0, 0.0, 0.0, 0.0, 0.0, 0.0, 1.657492973491093E9, 0.0, 2022-07-10 18:42:53.491
203.0, 41330.11893393027, 34606.64714654054, -10040.18009187938, -33833.634416298206, 18332.14084293137, 32429.788402293732, 215.2025956156964, 26031.601551962085, 0.106, 0.9560000000000001, 0.098, 192.0, 0.0, 0.0, 0.0, 0.0, 0.0, 0.0, 0.0, 0.0, 0.0, 1.657492973491142E9, 0.0, 2022-07-10 18:42:53.491
204.0, 41985.85206101562, 34588.27401259828, -10123.261526019756, -33565.7711107458, 18231.93797253823, 34160.99806559063, 83.05908239592104, 27104.150009649995, 0.106, 0.9560000000000001, 0.098, 192.0, 0.0, 0.0, 0.0, 0.0, 0.0, 0.0, 0.0, 0.0, 0.0, 1.657492973497741E9, 0.0, 2022-07-10 18:42:53.497
205.0, 42437.223188546086, 34525.30914846768, -10272.235902814378, -33795.368229790714, 18096.508752883525, 36217.78323862353, -50.336128513351504, 28676.416418125205, 0.106, 0.9560000000000001, 0.098, 192.0, 0.0, 0.0, 0.0, 0.0, 0.0, 0.0, 0.0, 0.0, 0.0, 1.657492973497764E9, 0.0, 2022-07-10 18:42:53.497
206.0, 41851.92040823941, 34548.443203978924, -10190.048538452213, -34065.93609642221, 18193.761193008566, 34755.509764612885, 79.10282362733169, 27807.939387314247, 0.106, 0.9560000000000001, 0.098, 192.0, 0.0, 0.0, 0.0, 0.0, 0.0, 0.0, 0.0, 0.0, 0.0, 1.657492973503604E9, 0.0, 2022-07-10 18:42:53.503
207.0, 41323.480465827044, 34612.10097218764, -10036.670867999896, -33886.831568101836, 18340.031008724094, 32516.312005080224, 224.56797654247006, 26126.775279852784, 0.1, 0.9580000000000001, 0.1, 192.0, 3.0, 32.0, 29.0, 240.0, 3.0, 32.0, 0.0, 0.0, 0.0, 1.657492973503624E9, 0.0, 2022-07-10 18:42:53.503
208.0, 41846.46658259232, 34593.92900394547, -10097.601723385063, -33578.75747427434, 18262.001068830617, 33690.76206573988, 112.27281239900738, 26771.936031810765, 0.1, 0.9580000000000001, 0.1, 192.0, 0.0, 0.0, 0.0, 0.0, 0.0, 0.0, 0.0, 0.0, 0.0, 1.65749297350999E9, 0.0, 2022-07-10 18:42:53.509
209.0, 42446.812086917416, 34531.41117470398, -10260.367126508609, -33732.179848215565, 18105.650616365747, 36110.38310651578, -46.17870404466439, 28554.17472769913, 0.1, 0.9580000000000001, 0.1, 192.0, 0.0, 0.0, 0.0, 0.0, 0.0, 0.0, 0.0, 0.0, 0.0, 1.657492973510056E9, 0.0, 2022-07-10 18:42:53.510
210.0, 41993.20578494141, 34530.53945667022, -10218.301143443721, -34046.26656130154, 18160.993535637088, 35220.1131248609, 44.54702669942698, 28108.27977756021, 0.1, 0.9580000000000001, 0.1, 192.0, 0.0, 0.0, 0.0, 0.0, 0.0, 0.0, 0.0, 0.0, 0.0, 1.657492973516102E9, 0.0, 2022-07-10 18:42:53.516
211.0, 41344.06642247039, 34596.09712315764, -10055.692202531363, -33949.63997002125, 18317.679264268787, 32736.119060053716, 211.4251508027495, 26302.974081393968, 0.1, 0.9580000000000001, 0.1, 192.0, 0.0, 0.0, 0.0, 0.0, 0.0, 0.0, 0.0, 0.0, 0.0, 1.657492973516149E9, 0.0, 2022-07-10 18:42:53.516
212.0, 41700.42028432134, 34606.44598084044, -10072.500714361753, -33604.77490482031, 18280.217740561693, 33256.53472620663, 143.3864406807948, 26477.608260823283, 0.1, 0.9580000000000001, 0.1, 192.0, 0.0, 0.0, 0.0, 0.0, 0.0, 0.0, 0.0, 0.0, 0.0, 1.657492973522794E9, 0.0, 2022-07-10 18:42:53.522
213.0, 42422.58279592786, 34543.65993066549, -10241.368143721598, -33673.28300157583, 18114.188982747673, 35898.71208652402, -35.449866706117, 28373.259708077876, 0.1, 0.9580000000000001, 0.1, 192.0, 0.0, 0.0, 0.0, 0.0, 0.0, 0.0, 0.0, 0.0, 0.0, 1.657492973528725E9, 0.0, 2022-07-10 18:42:53.528
214.0, 42137.48629540042, 34534.47336369436, -10237.41188495301, -34008.22389223861, 18134.841994624378, 35641.48821133235, 19.960107798589206, 28388.794170474313, 0.1, 0.9580000000000001, 0.1, 192.0, 0.0, 0.0, 0.0, 0.0, 0.0, 0.0, 0.0, 0.0, 0.0, 1.657492973528743E9, 0.0, 2022-07-10 18:42:53.528
215.0, 41404.32672552189, 34589.43630330996, -10081.128487721502, -33995.01401126552, 18294.679319224277, 33037.912313689274, 193.0073133715765, 26560.39912228574, 0.1, 0.9580000000000001, 0.1, 192.0, 0.0, 0.0, 0.0, 0.0, 0.0, 0.0, 0.0, 0.0, 0.0, 1.657492973534853E9, 0.0, 2022-07-10 18:42:53.534
216.0, 41567.18153562326, 34609.128190175084, -10057.078010687592, -33657.07798684573, 18302.413022805813, 32845.62025614027, 170.34264449389514, 26234.913019527557, 0.1, 0.9580000000000001, 0.1, 192.0, 0.0, 0.0, 0.0, 0.0, 0.0, 0.0, 0.0, 0.0, 0.0, 1.657492973534873E9, 0.0, 2022-07-10 18:42:53.534
217.0, 42357.11453641827, 34561.63073320755, -10214.523698630775, -33612.575663635216, 18141.189890049685, 35503.66735502092, -14.014543773477529, 28076.674410900407, 0.096, 0.96, 0.10400000000000001, 192.0, 3.0, 0.0, 30.0, 0.0, 3.0, 64.0, 0.0, 0.0, 0.0, 1.657492973541245E9, 0.0, 2022-07-10 18:42:53.541
218.0, 42276.98353254599, 34530.271235736756, -10261.283548031277, -33954.44559507914, 18108.57869488939, 35969.7906338919, -16.853215319301526, 28602.432143978138, 0.096, 0.96, 0.10400000000000001, 192.0, 0.0, 0.0, 0.0, 0.0, 0.0, 0.0, 0.0, 0.0, 0.0, 1.657492973541287E9, 0.0, 2022-07-10 18:42:53.541
219.0, 41506.83182559393, 34582.79783520673, -10101.155650753457, -34035.02363384052, 18274.42863874777, 33451.57604832364, 173.7401096511018, 26882.28659418662, 0.096, 0.96, 0.10400000000000001, 192.0, 0.0, 0.0, 0.0, 0.0, 0.0, 0.0, 0.0, 0.0, 0.0, 1.657492973547293E9, 0.0, 2022-07-10 18:42:53.547
220.0, 41452.45003133417, 34616.23604491187, -10033.899251687439, -33710.67747004956, 18327.759901018133, 32568.458624894458, 208.5417757680149, 26072.728761759852, 0.096, 0.96, 0.10400000000000001, 192.0, 0.0, 0.0, 0.0, 0.0, 0.0, 0.0, 0.0, 0.0, 0.0, 1.657492973547312E9, 0.0, 2022-07-10 18:42:53.547
221.0, 42243.992357729956, 34565.721102442876, -10184.795878505216, -33578.62336380761, 18171.70002123118, 35056.43130021469, 25.57039565687128, 27745.667427261764, 0.096, 0.96, 0.10400000000000001, 192.0, 0.0, 0.0, 0.0, 0.0, 0.0, 0.0, 0.0, 0.0, 0.0, 1.657492973555308E9, 0.0, 2022-07-10 18:42:53.555
222.0, 42370.01149296898, 34529.66773863647, -10263.339908521166, -33891.48073094854, 18106.410575677226, 36182.19926145068, -18.753113598002624, 28714.660252888236, 0.096, 0.96, 0.10400000000000001, 192.0, 0.0, 0.0, 0.0, 0.0, 0.0, 0.0, 0.0, 0.0, 0.0, 1.657492973555345E9, 0.0, 2022-07-10 18:42:53.555
223.0, 41627.7771148416, 34572.24781182382, -10127.329543510621, -34048.4346805137, 18250.065237291485, 33927.176466843666, 152.39419369628357, 27231.979636189895, 0.096, 0.96, 0.10400000000000001, 192.0, 0.0, 0.0, 0.0, 0.0, 0.0, 0.0, 0.0, 0.0, 0.0, 1.657492973561803E9, 0.0, 2022-07-10 18:42:53.561
224.0, 41379.80686185442, 34618.4712193574, -10022.097530615036, -33767.02621782139, 18339.96395349073, 32435.42104189647, 226.2667091210734, 26022.973778602336, 0.096, 0.96, 0.10400000000000001, 192.0, 0.0, 0.0, 0.0, 0.0, 0.0, 0.0, 0.0, 0.0, 0.0, 1.657492973561824E9, 0.0, 2022-07-10 18:42:53.561
225.0, 42115.17925443402, 34576.94167815944, -10143.981593129825, -33554.79640421825, 18204.668844302756, 34551.594799947125, 59.38858501775086, 27387.681888065566, 0.096, 0.96, 0.10400000000000001, 192.0, 0.0, 0.0, 0.0, 0.0, 0.0, 0.0, 0.0, 0.0, 0.0, 1.657492973569905E9, 0.0, 2022-07-10 18:42:53.569
226.0, 42436.19500830114, 34524.10215426709, -10263.228149798888, -33835.10963143226, 18095.01118600502, 36255.37887279736, -37.528578940460555, 28734.64271243128, 0.096, 0.96, 0.10400000000000001, 192.0, 0.0, 0.0, 0.0, 0.0, 0.0, 0.0, 0.0, 0.0, 0.0, 1.657492973569933E9, 0.0, 2022-07-10 18:42:53.569
227.0, 41763.563962407585, 34554.880506382055, -10154.710430468373, -34066.18196561122, 18215.375329896848, 34386.77303633369, 110.59643156485934, 27560.013837815983, 0.092, 0.968, 0.106, 192.0, 2.0, 224.0, 30.0, 64.0, 3.0, 80.0, 0.0, 0.0, 0.0, 1.657492973576846E9, 0.0, 2022-07-10 18:42:53.576
228.0, 41344.826381781866, 34607.92119597449, -10022.991600393249, -33838.6859105451, 18332.58787782048, 32406.14025666002, 220.72347649615725, 26046.040778880215, 0.092, 0.968, 0.106, 192.0, 0.0, 0.0, 0.0, 0.0, 0.0, 0.0, 0.0, 0.0, 0.0, 1.657492973585107E9, 0.0, 2022-07-10 18:42:53.585
229.0, 41977.78308126725, 34586.687038741955, -10111.728025880817, -33561.23370662137, 18228.048769003006, 34024.02657556851, 79.7510242165356, 27032.69148262638, 0.092, 0.968, 0.106, 192.0, 0.0, 0.0, 0.0, 0.0, 0.0, 0.0, 0.0, 0.0, 0.0, 1.657492973585159E9, 0.0, 2022-07-10 18:42:53.585
230.0, 42473.94710468616, 34527.63372989103, -10265.284510288777, -33776.995095848455, 18084.52821785548, 36203.03108728303, -58.76273617300227, 28684.44069438466, 0.092, 0.968, 0.106, 192.0, 0.0, 0.0, 0.0, 0.0, 0.0, 0.0, 0.0, 0.0, 0.0, 1.657492973593319E9, 0.0, 2022-07-10 18:42:53.593
231.0, 41917.90275787148, 34546.006863833296, -10187.187515161933, -34056.637770728805, 18175.45511429967, 34863.15576590964, 67.43521302166141, 27918.2899496901, 0.092, 0.968, 0.106, 192.0, 0.0, 0.0, 0.0, 0.0, 0.0, 0.0, 0.0, 0.0, 0.0, 1.65749297359351E9, 0.0, 2022-07-10 18:42:53.593
232.0, 41360.60671336731, 34612.50330358783, -10033.385161564966, -33899.415600230175, 18325.56943006151, 32536.96501695693, 220.8575869628891, 26208.940292470492, 0.092, 0.968, 0.106, 192.0, 0.0, 0.0, 0.0, 0.0, 0.0, 0.0, 0.0, 0.0, 0.0, 1.657492973601067E9, 0.0, 2022-07-10 18:42:53.601
233.0, 41836.09537316506, 34600.18749239296, -10080.56969411012, -33583.56309933223, 18265.62205143238, 33527.43786900495, 127.74021956207986, 26733.334569136452, 0.092, 0.968, 0.106, 192.0, 0.0, 0.0, 0.0, 0.0, 0.0, 0.0, 0.0, 0.0, 0.0, 1.657492973601086E9, 0.0, 2022-07-10 18:42:53.601
234.0, 42469.0744243949, 34533.66870089396, -10245.570271679197, -33711.705650294505, 18106.05294776594, 36019.76913449397, -36.0757155508656, 28561.260230691463, 0.092, 0.968, 0.106, 192.0, 0.0, 0.0, 0.0, 0.0, 0.0, 0.0, 0.0, 0.0, 0.0, 1.657492973609115E9, 0.0, 2022-07-10 18:42:53.609
235.0, 42066.40774803254, 34531.947616570906, -10220.156338233512, -34034.57659895141, 18148.45420699766, 35311.95644282776, 41.57424468687114, 28266.284259114775, 0.092, 0.968, 0.106, 192.0, 0.0, 0.0, 0.0, 0.0, 0.0, 0.0, 0.0, 0.0, 0.0, 1.657492973609163E9, 0.0, 2022-07-10 18:42:53.609
236.0, 41387.94289683615, 34595.761846990805, -10056.630975798485, -33966.448481851636, 18312.29249385506, 32766.159804601648, 215.64963050480253, 26436.212830092056, 0.092, 0.968, 0.106, 192.0, 0.0, 0.0, 0.0, 0.0, 0.0, 0.0, 0.0, 0.0, 0.0, 1.65749297361613E9, 0.0, 2022-07-10 18:42:53.616
237.0, 41680.102548611474, 34607.295347129744, -10053.591138552563, -33619.907035816555, 18298.121487870394, 33059.168822666266, 170.8790863608225, 26435.922257414135, 0.088, 0.972, 0.108, 192.0, 2.0, 192.0, 30.0, 96.0, 3.0, 96.0, 0.0, 0.0, 0.0, 1.65749297361615E9, 0.0, 2022-07-10 18:42:53.616
238.0, 42418.3136127369, 34544.64340742152, -10225.610163880607, -33650.50657397587, 18124.470785197114, 35708.76696214282, -16.249718219008233, 28308.88668404659, 0.088, 0.972, 0.108, 192.0, 0.0, 0.0, 0.0, 0.0, 0.0, 0.0, 0.0, 0.0, 0.0, 1.657492973622326E9, 0.0, 2022-07-10 18:42:53.622
239.0, 42202.328706065266, 34521.799924588195, -10246.732562390873, -33998.903214800746, 18120.648636895257, 35695.57943291419, 14.68509610713674, 28502.765715451926, 0.088, 0.972, 0.108, 192.0, 0.0, 0.0, 0.0, 0.0, 0.0, 0.0, 0.0, 0.0, 0.0, 1.657492973622378E9, 0.0, 2022-07-10 18:42:53.622
240.0, 41467.26923790804, 34578.34983806012, -10083.2295517003, -34017.142238276276, 18287.6161679764, 33130.02385258959, 203.11030186537528, 26714.76026949409, 0.088, 0.972, 0.108, 192.0, 0.0, 0.0, 0.0, 0.0, 0.0, 0.0, 0.0, 0.0, 0.0, 1.657492973630437E9, 0.0, 2022-07-10 18:42:53.630
241.0, 41555.26805582858, 34606.02129769579, -10039.08485640107, -33668.41032128457, 18312.538363044067, 32714.929606310085, 207.04420888950932, 26225.52528685633, 0.088, 0.972, 0.108, 192.0, 0.0, 0.0, 0.0, 0.0, 0.0, 0.0, 0.0, 0.0, 0.0, 1.65749297363046E9, 0.0, 2022-07-10 18:42:53.630
242.0, 42344.50815254547, 34543.63757892103, -10204.39835839252, -33604.30551818675, 18140.899317371764, 35341.30428329758, 14.327468195851827, 28052.0204367662, 0.088, 0.972, 0.108, 192.0, 0.0, 0.0, 0.0, 0.0, 0.0, 0.0, 0.0, 0.0, 0.0, 1.657492973637274E9, 0.0, 2022-07-10 18:42:53.637
243.0, 42311.60638470726, 34522.224607732845, -10250.040620570258, -33944.007330418506, 18113.20550599164, 35961.76635763244, 11.600555372304365, 28675.343534391348, 0.088, 0.972, 0.108, 192.0, 0.0, 0.0, 0.0, 0.0, 0.0, 0.0, 0.0, 0.0, 0.0, 1.657492973644562E9, 0.0, 2022-07-10 18:42:53.644
244.0, 41564.65578849981, 34585.03300965226, -10100.61920888653, -34029.301587259964, 18266.024382832573, 33523.61572070309, 191.5320982375262, 27018.63223536399, 0.088, 0.972, 0.108, 192.0, 0.0, 0.0, 0.0, 0.0, 0.0, 0.0, 0.0, 0.0, 0.0, 1.657492973644593E9, 0.0, 2022-07-10 18:42:53.644
245.0, 41456.22747614711, 34624.640300827064, -10025.807920194617, -33727.03894699084, 18327.84930799595, 32454.576486894668, 232.88282547984429, 26082.988212464836, 0.088, 0.972, 0.108, 192.0, 0.0, 0.0, 0.0, 0.0, 0.0, 0.0, 0.0, 0.0, 0.0, 1.657492973651997E9, 0.0, 2022-07-10 18:42:53.651
246.0, 42228.45789533352, 34572.426625779466, -10172.748288243805, -33571.47080558191, 18172.08000088692, 34822.207370067525, 48.39152674573979, 27665.894051300773, 0.088, 0.97, 0.112, 192.0, 2.0, 192.0, 30.0, 80.0, 3.0, 128.0, 0.0, 0.0, 0.0, 1.657492973652016E9, 0.0, 2022-07-10 18:42:53.652
247.0, 42418.15715052571, 34529.86890433656, -10265.865655644615, -33879.52254766495, 18089.512656869014, 36122.05071712145, -12.85225306180156, 28769.757302970567, 0.088, 0.97, 0.112, 192.0, 0.0, 0.0, 0.0, 0.0, 0.0, 0.0, 0.0, 0.0, 0.0, 1.657492973659875E9, 0.0, 2022-07-10 18:42:53.659
248.0, 41699.23564186521, 34569.02916062226, -10140.070037850146, -34057.55419225147, 18225.07598699045, 33983.94989776014, 153.69059487469136, 27385.536120597855, 0.088, 0.97, 0.112, 192.0, 0.0, 0.0, 0.0, 0.0, 0.0, 0.0, 0.0, 0.0, 0.0, 1.657492973659924E9, 0.0, 2022-07-10 18:42:53.659
249.0, 41397.15181555174, 34618.40416412403, -10025.226774838779, -33800.01739263742, 18328.363398118425, 32350.26089552175, 243.3881453738386, 26080.64127929703, 0.088, 0.97, 0.112, 192.0, 0.0, 0.0, 0.0, 0.0, 0.0, 0.0, 0.0, 0.0, 0.0, 1.657492973666916E9, 0.0, 2022-07-10 18:42:53.666
250.0, 42092.38047508961, 34590.4644835549, -10126.279011521223, -33561.34546534365, 18211.731995550632, 34301.50113123669, 89.38462607677295, 27307.93086384903, 0.088, 0.97, 0.112, 192.0, 0.0, 0.0, 0.0, 0.0, 0.0, 0.0, 0.0, 0.0, 0.0, 1.657492973666937E9, 0.0, 2022-07-10 18:42:53.666
251.0, 42466.101642382346, 34533.8028113607, -10256.41086774002, -33817.25058761246, 18092.48543888157, 36157.32176987192, -15.556814140893716, 28755.36277954135, 0.088, 0.97, 0.112, 192.0, 0.0, 0.0, 0.0, 0.0, 0.0, 0.0, 0.0, 0.0, 0.0, 1.657492973675787E9, 0.0, 2022-07-10 18:42:53.675
252.0, 41824.42776255939, 34552.7570906588, -10170.714279498372, -34070.808776713464, 18193.045937185998, 34457.985694168296, 125.03565848298771, 27713.547970479485, 0.088, 0.97, 0.112, 192.0, 0.0, 0.0, 0.0, 0.0, 0.0, 0.0, 0.0, 0.0, 0.0, 1.657492973675807E9, 0.0, 2022-07-10 18:42:53.675
253.0, 41347.48623937205, 34610.42459135349, -10032.401684808932, -33877.28737321942, 18326.552906817546, 32348.45040422087, 258.5649798589921, 26105.29525343123, 0.088, 0.97, 0.112, 192.0, 0.0, 0.0, 0.0, 0.0, 0.0, 0.0, 0.0, 0.0, 0.0, 1.657492973683326E9, 0.0, 2022-07-10 18:42:53.683
254.0, 41933.01253712327, 34590.91151844401, -10106.922400822927, -33579.49508184136, 18240.051655775507, 33775.85515688123, 135.20570221015242, 26932.935647122344, 0.088, 0.97, 0.112, 192.0, 0.0, 0.0, 0.0, 0.0, 0.0, 0.0, 0.0, 0.0, 0.0, 1.657492973683373E9, 0.0, 2022-07-10 18:42:53.683
255.0, 42475.33291284239, 34533.84751484961, -10257.863731129615, -33765.37218873169, 18097.58163661738, 36063.22092571508, -8.51601463747199, 28640.810089207902, 0.088, 0.97, 0.112, 192.0, 0.0, 0.0, 0.0, 0.0, 0.0, 0.0, 0.0, 0.0, 0.0, 1.657492973693211E9, 0.0, 2022-07-10 18:42:53.693
0.0, 41965.824897983664, 34544.01755857677, -10202.476108369365, -34058.7388347076, 18162.26758507104, 34915.86117933526, 94.50317555703826, 28026.36063413151, 0.08600000000000001, 0.966, 0.11, 192.0, 2.0, 176.0, 30.0, 48.0, 3.0, 112.0, 0.0, 0.0, 0.0, 1.657492973693231E9, 0.0, 2022-07-10 18:42:53.693
1.0, 41347.79916379442, 34602.824998238684, -10046.080952415581, -33941.61569376179, 18314.259447367127, 32477.37526623908, 255.7263083131681, 26240.255086452376, 0.08600000000000001, 0.966, 0.11, 192.0, 0.0, 0.0, 0.0, 0.0, 0.0, 0.0, 0.0, 0.0, 0.0, 1.657492973699723E9, 0.0, 2022-07-10 18:42:53.699
2.0, 41778.40552072591, 34599.896919715036, -10076.591083597075, -33600.86334954063, 18264.929147354265, 33279.98170614025, 174.3659584958504, 26607.918930997723, 0.08600000000000001, 0.966, 0.11, 192.0, 0.0, 0.0, 0.0, 0.0, 0.0, 0.0, 0.0, 0.0, 0.0, 1.657492973699789E9, 0.0, 2022-07-10 18:42:53.699
3.0, 42461.050148135444, 34535.07686079465, -10245.972603079392, -33700.5521298113, 18097.224008706096, 35873.45461528953, -0.08940697782122825, 28482.291517530863, 0.08600000000000001, 0.966, 0.11, 192.0, 0.0, 0.0, 0.0, 0.0, 0.0, 0.0, 0.0, 0.0, 0.0, 1.657492973705865E9, 0.0, 2022-07-10 18:42:53.705
4.0, 42105.568004318244, 34526.11381126807, -10232.40509419502, -34039.80690715396, 18128.002360821054, 35351.04964388009, 63.657768208714515, 28318.766155095836, 0.08600000000000001, 0.966, 0.11, 192.0, 0.0, 0.0, 0.0, 0.0, 0.0, 0.0, 0.0, 0.0, 0.0, 1.657492973712241E9, 0.0, 2022-07-10 18:42:53.712
5.0, 41392.837928871864, 34592.140864389046, -10063.85058925755, -33994.79049382097, 18291.773592445086, 32744.81388864683, 241.44354360622688, 26458.072836169344, 0.08600000000000001, 0.966, 0.11, 192.0, 0.0, 0.0, 0.0, 0.0, 0.0, 0.0, 0.0, 0.0, 0.0, 1.657492973712285E9, 0.0, 2022-07-10 18:42:53.712
6.0, 41638.95298706925, 34606.64714654054, -10051.825350740595, -33645.209210539964, 18286.051545864528, 32855.29856148941, 201.67979022023562, 26329.34913985123, 0.08600000000000001, 0.966, 0.11, 192.0, 0.0, 0.0, 0.0, 0.0, 0.0, 0.0, 0.0, 0.0, 0.0, 1.657492973720151E9, 0.0, 2022-07-10 18:42:53.720
7.0, 42406.936574809144, 34545.448070221915, -10216.64711435403, -33649.27722803083, 18116.91589557122, 35540.234808949805, 16.89791880821214, 28211.656595666005, 0.08600000000000001, 0.966, 0.11, 192.0, 0.0, 0.0, 0.0, 0.0, 0.0, 0.0, 0.0, 0.0, 0.0, 1.65749297372025E9, 0.0, 2022-07-10 18:42:53.720
8.0, 42233.844665747245, 34518.53656989772, -10243.960946078414, -33996.802150821946, 18104.980064032086, 35687.599860143644, 39.31671849688512, 28515.036823157887, 0.08600000000000001, 0.966, 0.11, 192.0, 0.0, 0.0, 0.0, 0.0, 0.0, 0.0, 0.0, 0.0, 0.0, 1.657492973726874E9, 0.0, 2022-07-10 18:42:53.726
9.0, 41478.95920025816, 34579.02039039378, -10081.061432488135, -34027.06641281443, 18273.62397594738, 33104.051125532525, 227.76427599957896, 26723.924484720766, 0.08600000000000001, 0.966, 0.11, 192.0, 0.0, 0.0, 0.0, 0.0, 0.0, 0.0, 0.0, 0.0, 0.0, 1.657492973726932E9, 0.0, 2022-07-10 18:42:53.726
10.0, 41515.10197104239, 34610.581053564674, -10027.081969628569, -33688.23631861643, 18311.085499654473, 32498.408257771523, 238.2919476380286, 26095.058154470702, 0.084, 0.964, 0.106, 192.0, 2.0, 160.0, 30.0, 32.0, 3.0, 80.0, 0.0, 0.0, 0.0, 1.65749297373461E9, 0.0, 2022-07-10 18:42:53.734
11.0, 42310.84642539578, 34554.14289881503, -10192.328416386654, -33598.35995416164, 18140.698151671666, 35082.60519297185, 44.97170984407781, 27858.342571060966, 0.084, 0.964, 0.106, 192.0, 0.0, 0.0, 0.0, 0.0, 0.0, 0.0, 0.0, 0.0, 0.0, 1.657492973734672E9, 0.0, 2022-07-10 18:42:53.734
12.0, 42338.54023677591, 34516.21198847437, -10260.635347442074, -33941.414528061694, 18087.21042719012, 35914.11243845373, 19.46836942057245, 28628.76249894649, 0.084, 0.964, 0.106, 192.0, 0.0, 0.0, 0.0, 0.0, 0.0, 0.0, 0.0, 0.0, 0.0, 1.657492973742684E9, 0.0, 2022-07-10 18:42:53.742
13.0, 41586.493442832645, 34567.17396583247, -10119.305267251166, -34058.49296551859, 18236.78830108503, 33543.35231105713, 198.90817390777755, 27035.97718906131, 0.084, 0.964, 0.106, 192.0, 0.0, 0.0, 0.0, 0.0, 0.0, 0.0, 0.0, 0.0, 0.0, 1.657492973742723E9, 0.0, 2022-07-10 18:42:53.742
14.0, 41418.96711814012, 34613.397373366046, -10029.920641174394, -33764.03108406438, 18316.96400844622, 32302.91990076541, 260.1966572042295, 25980.930147281906, 0.084, 0.964, 0.106, 192.0, 0.0, 0.0, 0.0, 0.0, 0.0, 0.0, 0.0, 0.0, 0.0, 1.657492973749921E9, 0.0, 2022-07-10 18:42:53.749
15.0, 42182.10037733321, 34572.73955020184, -10162.690003238917, -33578.243384151865, 18174.449285799183, 34584.1165881296, 85.83069870837912, 27483.10148514527, 0.084, 0.964, 0.106, 192.0, 0.0, 0.0, 0.0, 0.0, 0.0, 0.0, 0.0, 0.0, 0.0, 1.657492973749943E9, 0.0, 2022-07-10 18:42:53.749
16.0, 42429.69065066465, 34521.55405539919, -10276.259216816332, -33882.47297793305, 18073.19588341664, 36068.09360600634, 1.8551947897904861, 28707.217121984617, 0.084, 0.964, 0.106, 192.0, 0.0, 0.0, 0.0, 0.0, 0.0, 0.0, 0.0, 0.0, 0.0, 1.657492973758878E9, 0.0, 2022-07-10 18:42:53.758
17.0, 41720.96153747577, 34561.228401807355, -10151.827055433638, -34080.531785551524, 18206.97107398165, 34017.05283129845, 171.34847299438394, 27386.65370782062, 0.084, 0.964, 0.106, 192.0, 0.0, 0.0, 0.0, 0.0, 0.0, 0.0, 0.0, 0.0, 0.0, 1.657492973758898E9, 0.0, 2022-07-10 18:42:53.758
18.0, 41366.485222159055, 34616.59367282315, -10022.209289337312, -33818.994023679974, 18323.602476549444, 32224.308815516095, 281.45316618122655, 25969.955440754347, 0.084, 0.964, 0.106, 192.0, 0.0, 0.0, 0.0, 0.0, 0.0, 0.0, 0.0, 0.0, 0.0, 1.657492973765908E9, 0.0, 2022-07-10 18:42:53.765
19.0, 42041.530256453785, 34586.619983508586, -10122.792139386194, -33563.0218461778, 18208.200419926696, 34061.44339578669, 131.94234751967758, 27115.92937897794, 0.084, 0.964, 0.106, 192.0, 0.0, 0.0, 0.0, 0.0, 0.0, 0.0, 0.0, 0.0, 0.0, 1.657492973773768E9, 0.0, 2022-07-10 18:42:53.773
20.0, 42466.88395343828, 34528.77366885825, -10260.568292208707, -33804.800665950854, 18078.29208115245, 36059.890515791245, 10.214747216075327, 28661.396045851237, 0.084, 0.968, 0.108, 192.0, 2.0, 160.0, 30.0, 64.0, 3.0, 96.0, 0.0, 0.0, 0.0, 1.657492973773788E9, 0.0, 2022-07-10 18:42:53.773
21.0, 41855.51903909672, 34550.52191621326, -10170.289596353721, -34068.797119712486, 18178.494951545592, 34494.195520185895, 144.79460058147916, 27719.739403693606, 0.084, 0.968, 0.108, 192.0, 0.0, 0.0, 0.0, 0.0, 0.0, 0.0, 0.0, 0.0, 0.0, 1.657492973780294E9, 0.0, 2022-07-10 18:42:53.780
22.0, 41340.84777126882, 34605.95424246243, -10022.969248648793, -33882.16005351068, 18316.047586923552, 32298.33779315207, 282.7048638707237, 26056.233174351833, 0.084, 0.968, 0.108, 192.0, 0.0, 0.0, 0.0, 0.0, 0.0, 0.0, 0.0, 0.0, 0.0, 1.657492973780435E9, 0.0, 2022-07-10 18:42:53.780
23.0, 41885.5374319002, 34592.40908532251, -10085.80000231266, -33578.98099171889, 18238.03999877453, 33567.91687821351, 169.6273886713253, 26769.477339920682, 0.084, 0.968, 0.108, 192.0, 0.0, 0.0, 0.0, 0.0, 0.0, 0.0, 0.0, 0.0, 0.0, 1.657492973786944E9, 0.0, 2022-07-10 18:42:53.786
24.0, 42471.98015117409, 34526.2479217348, -10255.2709287728, -33744.763880343904, 18080.974290487087, 35953.630322650715, 9.387732671228965, 28542.574172326826, 0.084, 0.968, 0.108, 192.0, 0.0, 0.0, 0.0, 0.0, 0.0, 0.0, 0.0, 0.0, 0.0, 1.657492973786965E9, 0.0, 2022-07-10 18:42:53.786
25.0, 41989.808319784206, 34520.23530247633, -10227.465358670397, -34070.07116914644, 18133.567945190425, 34960.87759266825, 95.08432091287625, 28028.707567299316, 0.084, 0.968, 0.108, 192.0, 0.0, 0.0, 0.0, 0.0, 0.0, 0.0, 0.0, 0.0, 0.0, 1.65749297380236E9, 0.0, 2022-07-10 18:42:53.802
26.0, 41351.77777430746, 34583.08840788465, -10073.014804484226, -33964.77210101749, 18284.71044119721, 32486.181853554473, 257.6262065918692, 26222.753670543872, 0.084, 0.968, 0.108, 192.0, 0.0, 0.0, 0.0, 0.0, 0.0, 0.0, 0.0, 0.0, 0.0, 1.657492973808466E9, 0.0, 2022-07-10 18:42:53.808
27.0, 41723.800209021596, 34593.884300456564, -10086.76112732424, -33625.11499227464, 18251.719266381177, 33073.31747690648, 193.11907209385302, 26441.733710972516, 0.084, 0.968, 0.108, 192.0, 0.0, 0.0, 0.0, 0.0, 0.0, 0.0, 0.0, 0.0, 0.0, 1.657492973808518E9, 0.0, 2022-07-10 18:42:53.808
28.0, 42421.21933951609, 34537.535552684734, -10238.082437286668, -33680.99435341291, 18097.82750580639, 35658.52024060729, 30.35366897030699, 28292.45815187194, 0.084, 0.968, 0.108, 192.0, 0.0, 0.0, 0.0, 0.0, 0.0, 0.0, 0.0, 0.0, 0.0, 1.65749297381442E9, 0.0, 2022-07-10 18:42:53.814
29.0, 42137.68746110052, 34525.845590334604, -10231.55572790572, -34003.19474973616, 18115.59714264836, 35371.59089703452, 87.37296907579531, 28303.07523048821, 0.084, 0.968, 0.108, 192.0, 0.0, 0.0, 0.0, 0.0, 0.0, 0.0, 0.0, 0.0, 0.0, 1.657492973814441E9, 0.0, 2022-07-10 18:42:53.814
30.0, 41426.70082172166, 34578.37218980458, -10076.501676619253, -33990.87893854129, 18268.885406122852, 32831.29278794441, 258.8555525369111, 26522.043528800434, 0.084, 0.974, 0.112, 192.0, 2.0, 160.0, 30.0, 112.0, 3.0, 128.0, 0.0, 0.0, 0.0, 1.657492973820877E9, 0.0, 2022-07-10 18:42:53.820
31.0, 41595.5682510815, 34603.89788197254, -10047.489112316265, -33653.389949010605, 18283.995185374642, 32705.161893983117, 243.47755235165982, 26231.180278203523, 0.084, 0.974, 0.112, 192.0, 0.0, 0.0, 0.0, 0.0, 0.0, 0.0, 0.0, 0.0, 0.0, 1.657492973820908E9, 0.0, 2022-07-10 18:42:53.820
32.0, 42360.15437366419, 34550.052529579705, -10207.63936133854, -33618.96826254943, 18120.69334038417, 35326.261559279155, 57.24281755004139, 28058.681256613883, 0.084, 0.974, 0.112, 192.0, 0.0, 0.0, 0.0, 0.0, 0.0, 0.0, 0.0, 0.0, 0.0, 1.657492973827003E9, 0.0, 2022-07-10 18:42:53.827
33.0, 42248.462706621016, 34523.54336065571, -10247.64898391354, -33959.85471723732, 18095.838200549868, 35679.88850830657, 60.19324781814192, 28500.217616584017, 0.084, 0.974, 0.112, 192.0, 0.0, 0.0, 0.0, 0.0, 0.0, 0.0, 0.0, 0.0, 0.0, 1.657492973827024E9, 0.0, 2022-07-10 18:42:53.827
34.0, 41507.12239827185, 34577.723989215374, -10095.254790217256, -34014.86236034183, 18253.574461170967, 33197.14614118888, 240.25890115009562, 26799.741601913167, 0.084, 0.974, 0.112, 192.0, 0.0, 0.0, 0.0, 0.0, 0.0, 0.0, 0.0, 0.0, 0.0, 1.657492973833335E9, 0.0, 2022-07-10 18:42:53.833
35.0, 41480.97085725914, 34612.25743439882, -10032.379333064477, -33701.11092342269, 18302.033043150073, 32401.98283219133, 264.890523539844, 26053.081578383637, 0.084, 0.974, 0.112, 192.0, 0.0, 0.0, 0.0, 0.0, 0.0, 0.0, 0.0, 0.0, 0.0, 1.657492973833381E9, 0.0, 2022-07-10 18:42:53.833
36.0, 42262.4772503945, 34559.39555876202, -10184.594712805118, -33580.85853825314, 18144.72146567362, 34879.271373661926, 83.46141379611657, 27734.69272073421, 0.084, 0.974, 0.112, 192.0, 0.0, 0.0, 0.0, 0.0, 0.0, 0.0, 0.0, 0.0, 0.0, 1.6574929738394E9, 0.0, 2022-07-10 18:42:53.839
37.0, 42352.53242880493, 34515.63084311853, -10266.871484145104, -33909.31742302387, 18079.43202011967, 35892.319487609806, 40.41195397519517, 28637.14440311723, 0.084, 0.974, 0.112, 192.0, 0.0, 0.0, 0.0, 0.0, 0.0, 0.0, 0.0, 0.0, 0.0, 1.657492973845621E9, 0.0, 2022-07-10 18:42:53.845
38.0, 41614.299012935044, 34565.162308831495, -10125.899031865481, -34049.842840414385, 18224.807766056987, 33615.570797392225, 216.4542933051936, 27118.969216223864, 0.084, 0.974, 0.112, 192.0, 0.0, 0.0, 0.0, 0.0, 0.0, 0.0, 0.0, 0.0, 0.0, 1.657492973845739E9, 0.0, 2022-07-10 18:42:53.845
39.0, 41400.10224581984, 34621.19813218095, -10018.990638135749, -33768.479081210986, 18319.556810803035, 32230.254379541206, 292.76314887561193, 25965.08276046309, 0.084, 0.974, 0.112, 192.0, 0.0, 0.0, 0.0, 0.0, 0.0, 0.0, 0.0, 0.0, 0.0, 1.657492973853086E9, 0.0, 2022-07-10 18:42:53.853
40.0, 42131.093696486205, 34583.3119253292, -10142.014639617759, -33564.541764800764, 18182.60767252537, 34374.300762927625, 126.2650044280296, 27347.42639630156, 0.082, 0.972, 0.108, 192.0, 2.0, 144.0, 30.0, 96.0, 3.0, 96.0, 0.0, 0.0, 0.0, 1.657492973853137E9, 0.0, 2022-07-10 18:42:53.853
41.0, 42430.294147764944, 34531.2994159817, -10259.048373585747, -33844.63147457021, 18079.320261397395, 36007.2968610879, 36.723916140069505, 28657.663304527203, 0.082, 0.972, 0.108, 192.0, 0.0, 0.0, 0.0, 0.0, 0.0, 0.0, 0.0, 0.0, 0.0, 1.65749297386032E9, 0.0, 2022-07-10 18:42:53.860
42.0, 41760.41236643939, 34561.518974485276, -10156.073886880147, -34067.947753423185, 18194.31998661995, 34138.26634147958, 181.85379288837825, 27474.29489782988, 0.082, 0.972, 0.108, 192.0, 0.0, 0.0, 0.0, 0.0, 0.0, 0.0, 0.0, 0.0, 0.0, 1.657492973860366E9, 0.0, 2022-07-10 18:42:53.860
43.0, 41363.3112744464, 34624.48383861588, -10023.528042260175, -33842.30689314686, 18316.20404913474, 32241.452603513317, 294.9983233211426, 25994.654118377464, 0.082, 0.972, 0.108, 192.0, 0.0, 0.0, 0.0, 0.0, 0.0, 0.0, 0.0, 0.0, 0.0, 1.657492973866494E9, 0.0, 2022-07-10 18:42:53.866
44.0, 41992.98226749686, 34602.28855637176, -10118.053569561669, -33575.091788183665, 18212.581361839933, 33899.63911767473, 154.33879546389528, 27003.187179945373, 0.082, 0.972, 0.108, 192.0, 0.0, 0.0, 0.0, 0.0, 0.0, 0.0, 0.0, 0.0, 0.0, 1.657492973866514E9, 0.0, 2022-07-10 18:42:53.866
45.0, 42458.99378764556, 34537.31203524018, -10265.977414366891, -33794.94354664606, 18076.615700318303, 36003.02767789694, 25.86096833479027, 28602.812123633877, 0.082, 0.972, 0.108, 192.0, 0.0, 0.0, 0.0, 0.0, 0.0, 0.0, 0.0, 0.0, 0.0, 1.657492973874427E9, 0.0, 2022-07-10 18:42:53.874
46.0, 41902.547109430685, 34557.540363972235, -10192.529582086752, -34068.01480865655, 18164.50275951657, 34639.37010042311, 145.66631861523612, 27815.986015318158, 0.082, 0.972, 0.108, 192.0, 0.0, 0.0, 0.0, 0.0, 0.0, 0.0, 0.0, 0.0, 0.0, 1.657492973874457E9, 0.0, 2022-07-10 18:42:53.874
47.0, 41355.10818423131, 34631.345824163654, -10036.60381276653, -33907.9539666121, 18316.58402879048, 32359.715683426344, 295.44535821024874, 26114.12419249108, 0.082, 0.972, 0.108, 192.0, 0.0, 0.0, 0.0, 0.0, 0.0, 0.0, 0.0, 0.0, 0.0, 1.65749297388134E9, 0.0, 2022-07-10 18:42:53.881
48.0, 41841.19157090087, 34623.723879304394, -10081.687281332885, -33586.781750533795, 18255.586118171945, 33398.55771047565, 199.15404309678593, 26654.388207720305, 0.082, 0.972, 0.108, 192.0, 0.0, 0.0, 0.0, 0.0, 0.0, 0.0, 0.0, 0.0, 0.0, 1.657492973881361E9, 0.0, 2022-07-10 18:42:53.881
49.0, 42460.73722371307, 34555.21578254888, -10246.687858901962, -33718.58998758674, 18095.99466276105, 35848.57712371077, 31.985346315544408, 28453.569525905794, 0.082, 0.972, 0.108, 192.0, 0.0, 0.0, 0.0, 0.0, 0.0, 0.0, 0.0, 0.0, 0.0, 1.657492973888878E9, 0.0, 2022-07-10 18:42:53.888
50.0, 42048.727518168394, 34555.148727315514, -10216.468300398386, -34041.796212410474, 18141.860442383342, 35086.740265696084, 109.85882399783421, 28120.260312588252, 0.092, 0.968, 0.106, 192.0, 2.0, 224.0, 30.0, 64.0, 3.0, 80.0, 0.0, 0.0, 0.0, 1.657492973888925E9, 0.0, 2022-07-10 18:42:53.888
51.0, 41388.367579980804, 34620.237007169366, -10053.881711230482, -33970.69531329814, 18300.244903593648, 32584.618936135645, 274.92645680027687, 26315.379299566663, 0.092, 0.968, 0.106, 192.0, 0.0, 0.0, 0.0, 0.0, 0.0, 0.0, 0.0, 0.0, 0.0, 1.657492973896318E9, 0.0, 2022-07-10 18:42:53.896
52.0, 41702.38723783341, 34628.842428784665, -10056.921548476404, -33628.22188475393, 18280.061278350506, 32967.25844946605, 214.82261595995618, 26384.133265511187, 0.092, 0.968, 0.106, 192.0, 0.0, 0.0, 0.0, 0.0, 0.0, 0.0, 0.0, 0.0, 0.0, 1.657492973903974E9, 0.0, 2022-07-10 18:42:53.903
53.0, 42433.73631641106, 34565.2070123204, -10224.693742357938, -33667.650361973094, 18114.837183336876, 35600.94214689042, 22.37409619976237, 28275.73904701937, 0.092, 0.968, 0.106, 192.0, 0.0, 0.0, 0.0, 0.0, 0.0, 0.0, 0.0, 0.0, 0.0, 1.657492973903994E9, 0.0, 2022-07-10 18:42:53.903
54.0, 42184.80493841231, 34556.93686687194, -10219.418730666486, -34009.49794167256, 18133.657352168244, 35454.98525559727, 66.07175660988767, 28379.47349303645, 0.092, 0.968, 0.106, 192.0, 0.0, 0.0, 0.0, 0.0, 0.0, 0.0, 0.0, 0.0, 0.0, 1.657492973912419E9, 0.0, 2022-07-10 18:42:53.912
55.0, 41446.97385394262, 34618.76179203532, -10057.122714176503, -34009.56499690592, 18296.735679714166, 32873.3587710093, 241.57765407295872, 26557.627505973283, 0.092, 0.968, 0.106, 192.0, 0.0, 0.0, 0.0, 0.0, 0.0, 0.0, 0.0, 0.0, 0.0, 1.65749297391244E9, 0.0, 2022-07-10 18:42:53.912
56.0, 41572.88123045936, 34640.152411479045, -10024.064484127102, -33668.85735617368, 18308.62680776439, 32581.087360511705, 226.66904052126893, 26141.84035561566, 0.092, 0.968, 0.106, 192.0, 0.0, 0.0, 0.0, 0.0, 0.0, 0.0, 0.0, 0.0, 0.0, 1.657492973919911E9, 0.0, 2022-07-10 18:42:53.919
57.0, 42370.167955180164, 34584.585974763155, -10183.499477326808, -33610.49695140087, 18142.01690459453, 35223.30942431801, 35.62868066175946, 27969.520147981664, 0.092, 0.968, 0.106, 192.0, 0.0, 0.0, 0.0, 0.0, 0.0, 0.0, 0.0, 0.0, 0.0, 1.65749297391993E9, 0.0, 2022-07-10 18:42:53.919
58.0, 42323.676326713125, 34556.40042500501, -10238.507120431319, -33953.55152530093, 18102.43196516418, 35776.045712953295, 22.575261899860134, 28561.260230691463, 0.092, 0.968, 0.106, 192.0, 0.0, 0.0, 0.0, 0.0, 0.0, 0.0, 0.0, 0.0, 0.0, 1.657492973928025E9, 0.0, 2022-07-10 18:42:53.928
59.0, 41554.955131406205, 34612.86093149912, -10090.940903537381, -34046.981817124106, 18253.730923382154, 33287.78246495515, 200.3163338084619, 26864.963992233756, 0.092, 0.968, 0.106, 192.0, 0.0, 0.0, 0.0, 0.0, 0.0, 0.0, 0.0, 0.0, 0.0, 1.657492973928059E9, 0.0, 2022-07-10 18:42:53.928
60.0, 41471.292551909995, 34652.892905818575, -10016.621353223485, -33726.97189175748, 18310.929037443286, 32309.267796190717, 233.5757295579588, 25986.04869676217, 0.088, 0.966, 0.106, 192.0, 2.0, 192.0, 30.0, 48.0, 3.0, 80.0, 0.0, 0.0, 0.0, 1.657492973936201E9, 0.0, 2022-07-10 18:42:53.936
61.0, 42265.382977173686, 34602.24385288285, -10167.897959697004, -33584.59127957717, 18155.517358245535, 34757.70023556951, 50.581997702359885, 27634.266332896514, 0.088, 0.966, 0.106, 192.0, 0.0, 0.0, 0.0, 0.0, 0.0, 0.0, 0.0, 0.0, 0.0, 1.657492973936247E9, 0.0, 2022-07-10 18:42:53.936
62.0, 42429.958871598115, 34560.13316632905, -10261.708231175928, -33900.95787059759, 18078.38148813027, 35991.851805669285, -8.404255915195456, 28691.794418310456, 0.088, 0.966, 0.106, 192.0, 0.0, 0.0, 0.0, 0.0, 0.0, 0.0, 0.0, 0.0, 0.0, 1.657492973942529E9, 0.0, 2022-07-10 18:42:53.942
63.0, 41683.455310279765, 34608.39058260806, -10125.943735354393, -34071.70284649168, 18226.193574213215, 33775.944563859055, 169.09094680439793, 27230.43736582248, 0.088, 0.966, 0.106, 192.0, 0.0, 0.0, 0.0, 0.0, 0.0, 0.0, 0.0, 0.0, 0.0, 1.657492973942549E9, 0.0, 2022-07-10 18:42:53.942
64.0, 41385.28303924597, 34659.26315298834, -10008.798242664128, -33792.48485475598, 18330.665627797323, 32163.75793978667, 260.5766368599697, 25916.735937206264, 0.088, 0.966, 0.106, 192.0, 0.0, 0.0, 0.0, 0.0, 0.0, 0.0, 0.0, 0.0, 0.0, 1.657492973949324E9, 0.0, 2022-07-10 18:42:53.949
65.0, 42115.80510327877, 34625.08733571617, -10126.10019756558, -33556.919819941504, 18197.672748288245, 34215.08928717247, 94.50317555703826, 27225.072947153207, 0.088, 0.966, 0.106, 192.0, 0.0, 0.0, 0.0, 0.0, 0.0, 0.0, 0.0, 0.0, 0.0, 1.657492973949362E9, 0.0, 2022-07-10 18:42:53.949
66.0, 42487.492261826075, 34566.0116751208, -10256.053239828736, -33831.9356837196, 18080.95193874263, 36040.7574225375, -9.879471049245721, 28667.565127320904, 0.088, 0.966, 0.106, 192.0, 0.0, 0.0, 0.0, 0.0, 0.0, 0.0, 0.0, 0.0, 0.0, 1.657492973956232E9, 0.0, 2022-07-10 18:42:53.956
67.0, 41824.31600383711, 34592.02910566677, -10157.303232825188, -34085.20330014268, 18194.65526278678, 34257.84817431548, 138.69257434518033, 27559.946782582618, 0.088, 0.966, 0.106, 192.0, 0.0, 0.0, 0.0, 0.0, 0.0, 0.0, 0.0, 0.0, 0.0, 1.657492973964436E9, 0.0, 2022-07-10 18:42:53.964
68.0, 41350.50372487351, 34650.09893776166, -10016.867222412495, -33874.76162609597, 18325.14474691686, 32171.31282941256, 265.1587444733077, 25953.705722535342, 0.088, 0.966, 0.106, 192.0, 0.0, 0.0, 0.0, 0.0, 0.0, 0.0, 0.0, 0.0, 0.0, 1.657492973964465E9, 0.0, 2022-07-10 18:42:53.964
69.0, 41952.257389099286, 34632.93279801998, -10089.3315779366, -33570.26381138132, 18235.35778943989, 33667.33743755072, 143.7440685920797, 26827.480116782204, 0.088, 0.966, 0.106, 192.0, 0.0, 0.0, 0.0, 0.0, 0.0, 0.0, 0.0, 0.0, 0.0, 1.657492973971357E9, 0.0, 2022-07-10 18:42:53.971
70.0, 42502.22206142212, 34568.82799492216, -10251.202911281933, -33763.78521487537, 18083.67885156618, 35953.7867848619, -3.7550930684915866, 28554.778224799422, 0.088, 0.962, 0.11, 192.0, 2.0, 192.0, 30.0, 16.0, 3.0, 112.0, 0.0, 0.0, 0.0, 1.657492973971482E9, 0.0, 2022-07-10 18:42:53.971
71.0, 41962.02510142626, 34577.05343688172, -10189.176820418455, -34075.03325641552, 18159.9877071366, 34716.90830193857, 107.86951874131188, 27867.976172921204, 0.088, 0.962, 0.11, 192.0, 0.0, 0.0, 0.0, 0.0, 0.0, 0.0, 0.0, 0.0, 0.0, 1.6574929739789E9, 0.0, 2022-07-10 18:42:53.978
72.0, 41350.257855684504, 34647.349673193654, -10020.912888158904, -33927.444687777126, 18318.215706135717, 32295.54382509516, 271.75250908762325, 26076.193282150423, 0.088, 0.962, 0.11, 192.0, 0.0, 0.0, 0.0, 0.0, 0.0, 0.0, 0.0, 0.0, 0.0, 1.657492973978932E9, 0.0, 2022-07-10 18:42:53.978
73.0, 41799.12558783598, 34643.3263591917, -10058.285004888177, -33583.94307898797, 18266.292603766036, 33177.20838513474, 184.62540920083634, 26502.306938446396, 0.088, 0.962, 0.11, 192.0, 0.0, 0.0, 0.0, 0.0, 0.0, 0.0, 0.0, 0.0, 0.0, 1.657492973986976E9, 0.0, 2022-07-10 18:42:53.986
74.0, 42482.530174556996, 34576.78521594825, -10232.181576750467, -33695.18771114203, 18097.42517440619, 35758.38783483361, 10.907651294189847, 28391.61049027568, 0.088, 0.962, 0.11, 192.0, 0.0, 0.0, 0.0, 0.0, 0.0, 0.0, 0.0, 0.0, 0.0, 1.657492973986996E9, 0.0, 2022-07-10 18:42:53.986
75.0, 42108.94311773099, 34572.51603275729, -10213.3614079191, -34038.97989260911, 18135.26667776903, 35160.992760776615, 83.43906205166127, 28178.48660689433, 0.088, 0.962, 0.11, 192.0, 0.0, 0.0, 0.0, 0.0, 0.0, 0.0, 0.0, 0.0, 0.0, 1.657492973993483E9, 0.0, 2022-07-10 18:42:53.993
76.0, 41388.59109742536, 34632.70928057543, -10047.17618789389, -33987.72734257309, 18302.882409439375, 32559.540278856788, 264.17526771727415, 26304.426944783565, 0.088, 0.962, 0.11, 192.0, 0.0, 0.0, 0.0, 0.0, 0.0, 0.0, 0.0, 0.0, 0.0, 1.657492973993511E9, 0.0, 2022-07-10 18:42:53.993
77.0, 41646.57493192851, 34645.6285888706, -10044.292812859156, -33631.79816386678, 18288.487886010156, 32744.657426435642, 218.51065379508185, 26218.864467008647, 0.088, 0.962, 0.11, 192.0, 0.0, 0.0, 0.0, 0.0, 0.0, 0.0, 0.0, 0.0, 0.0, 1.657492974002975E9, 0.0, 2022-07-10 18:42:54.002
78.0, 42417.48659819205, 34588.98926842085, -10215.015437008791, -33642.906980861066, 18113.943113558664, 35437.19326701084, 29.191378258631023, 28118.80744919866, 0.088, 0.962, 0.11, 192.0, 0.0, 0.0, 0.0, 0.0, 0.0, 0.0, 0.0, 0.0, 0.0, 1.657492974003046E9, 0.0, 2022-07-10 18:42:54.003
79.0, 42239.7678780279, 34574.63944848054, -10232.650963384029, -33984.73220881608, 18111.976160046597, 35524.78975353119, 56.39345126073972, 28386.29077509532, 0.088, 0.962, 0.11, 192.0, 0.0, 0.0, 0.0, 0.0, 0.0, 0.0, 0.0, 0.0, 0.0, 1.657492974009557E9, 0.0, 2022-07-10 18:42:54.009
80.0, 41480.68028458122, 34636.464373643925, -10070.265539916223, -34014.14710451926, 18279.8154091615, 32936.88242875128, 242.49407559562633, 26588.36115459933, 0.08600000000000001, 0.97, 0.11, 192.0, 2.0, 176.0, 30.0, 80.0, 3.0, 112.0, 0.0, 0.0, 0.0, 1.657492974009577E9, 0.0, 2022-07-10 18:42:54.009
81.0, 41531.3516892614, 34666.6839321475, -10020.085873614058, -33675.42876904354, 18314.550020045044, 32404.307413614682, 252.28413966705082, 26007.372260972534, 0.08600000000000001, 0.97, 0.11, 192.0, 0.0, 0.0, 0.0, 0.0, 0.0, 0.0, 0.0, 0.0, 0.0, 1.657492974018271E9, 0.0, 2022-07-10 18:42:54.018
82.0, 42340.77541122144, 34608.25647214132, -10181.800744748205, -33592.59320409217, 18145.459073240647, 35018.61214859631, 57.62279720578161, 27803.714907612197, 0.08600000000000001, 0.97, 0.11, 192.0, 0.0, 0.0, 0.0, 0.0, 0.0, 0.0, 0.0, 0.0, 0.0, 1.657492974024195E9, 0.0, 2022-07-10 18:42:54.024
83.0, 42366.34580687831, 34567.7104076994, -10247.626632169084, -33934.37372855827, 18096.754622072534, 35803.78422782233, 35.62868066175946, 28562.690742336603, 0.08600000000000001, 0.97, 0.11, 192.0, 0.0, 0.0, 0.0, 0.0, 0.0, 0.0, 0.0, 0.0, 0.0, 1.657492974024228E9, 0.0, 2022-07-10 18:42:54.024
84.0, 41593.57894582498, 34617.13011469008, -10092.460822160343, -34048.32292179143, 18260.168225785284, 33378.150567787954, 224.43386607573822, 26925.648978429912, 0.08600000000000001, 0.97, 0.11, 192.0, 0.0, 0.0, 0.0, 0.0, 0.0, 0.0, 0.0, 0.0, 0.0, 1.657492974031422E9, 0.0, 2022-07-10 18:42:54.031
85.0, 41435.418002059225, 34658.413786699035, -10000.55044896012, -33733.40919416061, 18334.577183077, 32196.36913494696, 283.37541620438293, 25896.753477663216, 0.08600000000000001, 0.97, 0.11, 192.0, 0.0, 0.0, 0.0, 0.0, 0.0, 0.0, 0.0, 0.0, 0.0, 1.657492974031573E9, 0.0, 2022-07-10 18:42:54.031
86.0, 42222.13235165267, 34609.552873319735, -10144.763904185762, -33553.567058273205, 18179.03139341252, 34557.42860524996, 97.07362616939858, 27463.00726687995, 0.08600000000000001, 0.97, 0.11, 192.0, 0.0, 0.0, 0.0, 0.0, 0.0, 0.0, 0.0, 0.0, 0.0, 1.657492974039089E9, 0.0, 2022-07-10 18:42:54.039
87.0, 42449.44959276314, 34562.010712863295, -10252.476960715885, -33869.28544870442, 18086.897502767744, 35970.617648436746, 21.07769502135456, 28646.442728810638, 0.08600000000000001, 0.97, 0.11, 192.0, 0.0, 0.0, 0.0, 0.0, 0.0, 0.0, 0.0, 0.0, 0.0, 1.657492974039114E9, 0.0, 2022-07-10 18:42:54.039
88.0, 41713.78662750562, 34599.29342261475, -10131.464616234853, -34068.8418232014, 18218.593981098413, 33852.11930896274, 185.98886561261006, 27274.000915765875, 0.08600000000000001, 0.97, 0.11, 192.0, 0.0, 0.0, 0.0, 0.0, 0.0, 0.0, 0.0, 0.0, 0.0, 1.657492974046278E9, 0.0, 2022-07-10 18:42:54.046
89.0, 41366.08289075886, 34654.681045375, -10002.78562340565, -33805.91825317362, 18332.990209220676, 32094.959270353233, 290.5503261745365, 25870.80310235061, 0.08600000000000001, 0.97, 0.11, 192.0, 0.0, 0.0, 0.0, 0.0, 0.0, 0.0, 0.0, 0.0, 0.0, 1.657492974046306E9, 0.0, 2022-07-10 18:42:54.046
90.0, 42071.883925424096, 34621.4216496255, -10112.063302047647, -33550.68368323847, 18209.40741412728, 34007.53098816049, 128.61193759583685, 27071.82938716762, 0.08600000000000001, 0.97, 0.11, 192.0, 2.0, 176.0, 30.0, 80.0, 3.0, 112.0, 0.0, 0.0, 0.0, 1.657492974054356E9, 0.0, 2022-07-10 18:42:54.054
91.0, 42507.25120392456, 34560.91547738499, -10255.628556684083, -33800.95616590454, 18078.001508474532, 35988.63315446772, 2.2351744455307063, 28623.71100469959, 0.08600000000000001, 0.97, 0.11, 192.0, 0.0, 0.0, 0.0, 0.0, 0.0, 0.0, 0.0, 0.0, 0.0, 1.65749297405441E9, 0.0, 2022-07-10 18:42:54.054
92.0, 41870.65117009296, 34585.927079430476, -10163.91934918396, -34072.93219243672, 18186.005137682576, 34344.75175675771, 143.85582731435625, 27628.052547937936, 0.08600000000000001, 0.97, 0.11, 192.0, 0.0, 0.0, 0.0, 0.0, 0.0, 0.0, 0.0, 0.0, 0.0, 1.657492974061787E9, 0.0, 2022-07-10 18:42:54.061
93.0, 41346.94979750512, 34648.400205183054, -10011.189879320846, -33871.18534698312, 18331.693808042266, 32136.77938422911, 292.6737418977907, 25939.735882250774, 0.08600000000000001, 0.97, 0.11, 192.0, 0.0, 0.0, 0.0, 0.0, 0.0, 0.0, 0.0, 0.0, 0.0, 1.657492974061816E9, 0.0, 2022-07-10 18:42:54.061
94.0, 41915.265252025754, 34627.56837935071, -10079.541513865175, -33560.205526376434, 18246.80188260101, 33477.45936840289, 172.53311545051523, 26699.449324542205, 0.08600000000000001, 0.97, 0.11, 192.0, 0.0, 0.0, 0.0, 0.0, 0.0, 0.0, 0.0, 0.0, 0.0, 1.657492974069779E9, 0.0, 2022-07-10 18:42:54.069
95.0, 42516.30366042897, 34564.42470126447, -10239.98233556537, -33727.86596153569, 18092.083107481376, 35873.05228388933, 18.95427929810039, 28490.69577344606, 0.08600000000000001, 0.97, 0.11, 192.0, 0.0, 0.0, 0.0, 0.0, 0.0, 0.0, 0.0, 0.0, 0.0, 1.657492974069798E9, 0.0, 2022-07-10 18:42:54.069
96.0, 42031.33786098217, 34577.880451426565, -10192.194305919922, -34045.59600896788, 18159.9877071366, 34839.30645457583, 118.59835607985927, 27963.328714767544, 0.08600000000000001, 0.97, 0.11, 192.0, 0.0, 0.0, 0.0, 0.0, 0.0, 0.0, 0.0, 0.0, 0.0, 1.657492974075985E9, 0.0, 2022-07-10 18:42:54.075
97.0, 41374.06246352941, 34645.71799584842, -10027.03726613966, -33934.61959774728, 18323.15544166034, 32342.907171595954, 287.018750550598, 26121.12028850559, 0.08600000000000001, 0.97, 0.11, 192.0, 0.0, 0.0, 0.0, 0.0, 0.0, 0.0, 0.0, 0.0, 0.0, 1.657492974076025E9, 0.0, 2022-07-10 18:42:54.076
98.0, 41762.02169204017, 34639.5265626343, -10052.94293796336, -33589.73218080189, 18277.647289949335, 33008.49741798609, 205.90426992228865, 26372.532710138883, 0.08600000000000001, 0.97, 0.11, 192.0, 0.0, 0.0, 0.0, 0.0, 0.0, 0.0, 0.0, 0.0, 0.0, 1.657492974084139E9, 0.0, 2022-07-10 18:42:54.084
99.0, 42477.94806694366, 34575.60057349212, -10224.649038869029, -33667.940934651015, 18107.39405243326, 35642.71755727739, 23.446979933617108, 28271.671029528505, 0.08600000000000001, 0.97, 0.11, 192.0, 0.0, 0.0, 0.0, 0.0, 0.0, 0.0, 0.0, 0.0, 0.0, 1.657492974093017E9, 0.0, 2022-07-10 18:42:54.093
100.0, 42159.77098462236, 34574.79591069173, -10208.913410772493, -34004.468799170114, 18137.859480125844, 35254.69127353326, 85.18249811917522, 28200.86070309409, 0.082, 0.966, 0.112, 192.0, 2.0, 144.0, 30.0, 48.0, 3.0, 128.0, 0.0, 0.0, 0.0, 1.657492974093058E9, 0.0, 2022-07-10 18:42:54.093
101.0, 41420.889368163276, 34634.13979222057, -10046.907966960427, -33976.19384243415, 18300.91545592731, 32644.968646164973, 262.2530176941178, 26334.758262009414, 0.082, 0.966, 0.112, 192.0, 0.0, 0.0, 0.0, 0.0, 0.0, 0.0, 0.0, 0.0, 0.0, 1.65749297410008E9, 0.0, 2022-07-10 18:42:54.100
102.0, 41614.83545480197, 34644.645112114566, -10032.491091786755, -33631.77581212232, 18299.037909393064, 32614.614977194666, 230.84881673441134, 26098.567378350184, 0.082, 0.966, 0.112, 192.0, 0.0, 0.0, 0.0, 0.0, 0.0, 0.0, 0.0, 0.0, 0.0, 1.657492974100106E9, 0.0, 2022-07-10 18:42:54.100
103.0, 42407.69653412062, 34581.590841006146, -10202.45375662491, -33614.98965203639, 18124.560192174937, 35309.29658523758, 35.874549850767835, 27989.92729066936, 0.082, 0.966, 0.112, 192.0, 0.0, 0.0, 0.0, 0.0, 0.0, 0.0, 0.0, 0.0, 0.0, 1.65749297410623E9, 0.0, 2022-07-10 18:42:54.106
104.0, 42291.19924201957, 34561.876602396565, -10235.042600040746, -33966.49318534055, 18111.26090422403, 35615.00139415281, 49.35265175731799, 28420.488944111938, 0.082, 0.966, 0.112, 192.0, 0.0, 0.0, 0.0, 0.0, 0.0, 0.0, 0.0, 0.0, 0.0, 1.657492974106249E9, 0.0, 2022-07-10 18:42:54.106
105.0, 41515.37019197586, 34625.24379792736, -10076.211103941334, -34024.764183135536, 18277.89315913834, 33048.50704056109, 237.17436041526324, 26646.788614605503, 0.082, 0.966, 0.112, 192.0, 0.0, 0.0, 0.0, 0.0, 0.0, 0.0, 0.0, 0.0, 0.0, 1.657492974114046E9, 0.0, 2022-07-10 18:42:54.114
106.0, 41496.61707837786, 34660.33603672219, -10009.55820197561, -33690.0021064284, 18323.691883527266, 32302.53992110967, 259.34729091492784, 25902.78844866615, 0.082, 0.966, 0.112, 192.0, 0.0, 0.0, 0.0, 0.0, 0.0, 0.0, 0.0, 0.0, 0.0, 1.657492974114068E9, 0.0, 2022-07-10 18:42:54.114
107.0, 42314.735628931005, 34608.72585877489, -10165.282805595732, -33566.173442146, 18158.043105368986, 34877.05855096085, 66.60819847681505, 27653.42177789471, 0.082, 0.966, 0.112, 192.0, 0.0, 0.0, 0.0, 0.0, 0.0, 0.0, 0.0, 0.0, 0.0, 1.657492974121928E9, 0.0, 2022-07-10 18:42:54.121
108.0, 42389.70337983411, 34564.13412858655, -10248.297184502744, -33915.15122832671, 18089.110325468817, 35836.9095131051, 22.1505787552093, 28528.112593664242, 0.082, 0.966, 0.112, 192.0, 0.0, 0.0, 0.0, 0.0, 0.0, 0.0, 0.0, 0.0, 0.0, 1.657492974121978E9, 0.0, 2022-07-10 18:42:54.121
109.0, 41628.6264811309, 34612.88328324357, -10103.681397876906, -34053.44147127169, 18240.69985636471, 33495.184301755944, 202.46210127617138, 26966.865595205498, 0.082, 0.966, 0.112, 192.0, 0.0, 0.0, 0.0, 0.0, 0.0, 0.0, 0.0, 0.0, 0.0, 1.657492974128718E9, 0.0, 2022-07-10 18:42:54.128
110.0, 41413.401533770746, 34663.42057745702, -9999.969303604283, -33757.92905782808, 18334.085444698983, 32130.49854403717, 278.8827155688662, 25821.02576744864, 0.08, 0.968, 0.108, 192.0, 2.0, 128.0, 30.0, 64.0, 3.0, 96.0, 0.0, 0.0, 0.0, 1.657492974128747E9, 0.0, 2022-07-10 18:42:54.128
111.0, 42174.59019119623, 34619.879379258084, -10136.516110481753, -33551.35423557213, 18188.50853306157, 34360.42032962088, 99.44291108166112, 27281.77932283632, 0.08, 0.968, 0.108, 192.0, 0.0, 0.0, 0.0, 0.0, 0.0, 0.0, 0.0, 0.0, 0.0, 1.657492974136609E9, 0.0, 2022-07-10 18:42:54.136
112.0, 42466.436918549174, 34569.967933889384, -10253.616899683107, -33839.55762857886, 18085.57874984488, 35957.184250019105, 14.573337384860205, 28587.32236472635, 0.08, 0.968, 0.108, 192.0, 0.0, 0.0, 0.0, 0.0, 0.0, 0.0, 0.0, 0.0, 0.0, 1.657492974136629E9, 0.0, 2022-07-10 18:42:54.136
113.0, 41761.97698855126, 34605.060172684214, -10138.795988416194, -34062.18100335372, 18214.302446162994, 33986.49799662805, 178.56808645344813, 27331.489602504924, 0.08, 0.968, 0.108, 192.0, 0.0, 0.0, 0.0, 0.0, 0.0, 0.0, 0.0, 0.0, 0.0, 1.657492974143839E9, 0.0, 2022-07-10 18:42:54.143
114.0, 41352.69419583013, 34658.23497274339, -10006.78658566315, -33823.352613848765, 18336.566488333523, 32086.35384873794, 288.8515935959332, 25831.821660020552, 0.08, 0.968, 0.108, 192.0, 0.0, 0.0, 0.0, 0.0, 0.0, 0.0, 0.0, 0.0, 0.0, 1.657492974151713E9, 0.0, 2022-07-10 18:42:54.151
115.0, 42020.005526543326, 34630.42940264099, -10101.245057731277, -33549.27552333778, 18228.205231214193, 33838.484744845, 144.86165581484508, 26906.873513087456, 0.08, 0.968, 0.108, 192.0, 0.0, 0.0, 0.0, 0.0, 0.0, 0.0, 0.0, 0.0, 0.0, 1.657492974151732E9, 0.0, 2022-07-10 18:42:54.151
116.0, 42501.57386083292, 34570.236154822844, -10248.78892288076, -33780.54902321685, 18091.34549991435, 35944.62256963523, 14.841558318323889, 28527.26322737494, 0.08, 0.968, 0.108, 192.0, 0.0, 0.0, 0.0, 0.0, 0.0, 0.0, 0.0, 0.0, 0.0, 1.657492974159956E9, 0.0, 2022-07-10 18:42:54.159
117.0, 41899.0378855512, 34588.07284689818, -10169.641395764518, -34064.88556443281, 18183.278224859027, 34463.506575048756, 143.47584765861603, 27648.1244144588, 0.08, 0.968, 0.108, 192.0, 0.0, 0.0, 0.0, 0.0, 0.0, 0.0, 0.0, 0.0, 0.0, 1.657492974160098E9, 0.0, 2022-07-10 18:42:54.160
118.0, 41341.29480615792, 34646.05327201525, -10018.342437546544, -33891.145454781705, 18327.178755662295, 32173.682114324823, 287.57754416198065, 25920.222809341292, 0.08, 0.968, 0.108, 192.0, 0.0, 0.0, 0.0, 0.0, 0.0, 0.0, 0.0, 0.0, 0.0, 1.657492974167727E9, 0.0, 2022-07-10 18:42:54.167
119.0, 41868.57245785862, 34633.6257020981, -10075.965234752326, -33568.7215410139, 18254.535586182545, 33326.27216890719, 177.67401667523583, 26544.931715122668, 0.08, 0.968, 0.108, 192.0, 0.0, 0.0, 0.0, 0.0, 0.0, 0.0, 0.0, 0.0, 0.0, 1.657492974167763E9, 0.0, 2022-07-10 18:42:54.167
120.0, 42507.13944520229, 34571.04081762324, -10242.284565244267, -33715.79601952982, 18095.704090083134, 35804.924166789555, 13.276936206452396, 28381.216929103965, 0.078, 0.968, 0.112, 192.0, 2.0, 112.0, 30.0, 64.0, 3.0, 128.0, 0.0, 0.0, 0.0, 1.657492974174868E9, 0.0, 2022-07-10 18:42:54.174
121.0, 42060.88686715208, 34580.674419483476, -10201.380872891054, -34044.07609034492, 18153.97508787812, 34948.38296751773, 104.49440532856052, 27965.452130490798, 0.078, 0.968, 0.112, 192.0, 0.0, 0.0, 0.0, 0.0, 0.0, 0.0, 0.0, 0.0, 0.0, 1.657492974174912E9, 0.0, 2022-07-10 18:42:54.174
122.0, 41384.38896946776, 34646.56736213772, -10043.957536692327, -33957.99952244753, 18308.179772875283, 32430.213085438383, 266.61160786290264, 26132.60908515562, 0.078, 0.968, 0.112, 192.0, 0.0, 0.0, 0.0, 0.0, 0.0, 0.0, 0.0, 0.0, 0.0, 1.657492974181454E9, 0.0, 2022-07-10 18:42:54.181
123.0, 41722.459104354275, 34654.14460350807, -10049.165493150413, -33607.948852532965, 18284.88925515285, 32894.50352126402, 212.74390372561263, 26256.884784327125, 0.078, 0.968, 0.112, 192.0, 0.0, 0.0, 0.0, 0.0, 0.0, 0.0, 0.0, 0.0, 0.0, 1.6574929741815E9, 0.0, 2022-07-10 18:42:54.181
124.0, 42457.51857251151, 34586.91055618651, -10215.68598934245, -33658.1955740685, 18116.714729871124, 35535.295073425186, 32.164160271186866, 28142.94733321039, 0.078, 0.968, 0.112, 192.0, 0.0, 0.0, 0.0, 0.0, 0.0, 0.0, 0.0, 0.0, 0.0, 1.657492974189111E9, 0.0, 2022-07-10 18:42:54.189
125.0, 42195.98081063996, 34565.09525359813, -10227.130082503567, -34006.994546293565, 18119.73221537259, 35353.37422530344, 69.3127595559072, 28220.619645192583, 0.078, 0.968, 0.112, 192.0, 0.0, 0.0, 0.0, 0.0, 0.0, 0.0, 0.0, 0.0, 0.0, 1.657492974189165E9, 0.0, 2022-07-10 18:42:54.189
126.0, 41448.80669698795, 34629.06594622922, -10057.592100810063, -34005.40757243724, 18286.789153431553, 32761.935324899594, 254.04992747902008, 26390.883492336692, 0.078, 0.968, 0.112, 192.0, 0.0, 0.0, 0.0, 0.0, 0.0, 0.0, 0.0, 0.0, 0.0, 1.65749297419691E9, 0.0, 2022-07-10 18:42:54.196
127.0, 41579.27382937358, 34654.16695525253, -10017.537774746153, -33648.69608267499, 18309.409118820324, 32513.13805736757, 248.61845357638046, 25996.2857957227, 0.078, 0.968, 0.112, 192.0, 0.0, 0.0, 0.0, 0.0, 0.0, 0.0, 0.0, 0.0, 0.0, 1.657492974196931E9, 0.0, 2022-07-10 18:42:54.196
128.0, 42382.86374603078, 34596.29828885773, -10183.074794182157, -33596.32594541621, 18137.30068651446, 35177.57775516245, 54.87353263777884, 27852.106434357935, 0.078, 0.968, 0.112, 192.0, 0.0, 0.0, 0.0, 0.0, 0.0, 0.0, 0.0, 0.0, 0.0, 1.657492974204111E9, 0.0, 2022-07-10 18:42:54.204
129.0, 42321.91053890116, 34566.682227454454, -10236.853091341627, -33948.58943803185, 18097.53693312847, 35675.44051115996, 46.31281451139623, 28422.567656346284, 0.078, 0.968, 0.112, 192.0, 0.0, 0.0, 0.0, 0.0, 0.0, 0.0, 0.0, 0.0, 0.0, 1.657492974211064E9, 0.0, 2022-07-10 18:42:54.211
130.0, 41543.354576033904, 34621.354594392134, -10084.436545900888, -34036.16357280774, 18256.211967016694, 33162.74680647216, 231.54172081252585, 26706.601882767904, 0.076, 0.97, 0.114, 192.0, 2.0, 96.0, 30.0, 80.0, 3.0, 144.0, 0.0, 0.0, 0.0, 1.657492974211085E9, 0.0, 2022-07-10 18:42:54.211
131.0, 41471.40431063227, 34662.21358325644, -10002.673864683375, -33705.31305138028, 18320.272066625603, 32245.051234370618, 274.4570701667154, 25859.806044078596, 0.076, 0.97, 0.114, 192.0, 0.0, 0.0, 0.0, 0.0, 0.0, 0.0, 0.0, 0.0, 0.0, 1.65749297421864E9, 0.0, 2022-07-10 18:42:54.218
132.0, 42266.79113707437, 34620.08054495818, -10144.428628018932, -33559.49027055386, 18167.386134551303, 34691.404961515065, 92.33505634487348, 27505.408526111667, 0.076, 0.97, 0.114, 192.0, 0.0, 0.0, 0.0, 0.0, 0.0, 0.0, 0.0, 0.0, 0.0, 1.657492974218718E9, 0.0, 2022-07-10 18:42:54.218
133.0, 42401.77332183997, 34577.83574793765, -10235.377876207576, -33878.74023660901, 18091.591369103357, 35809.86390231418, 37.573282429371176, 28487.477122244494, 0.076, 0.97, 0.114, 192.0, 0.0, 0.0, 0.0, 0.0, 0.0, 0.0, 0.0, 0.0, 0.0, 1.65749297423287E9, 0.0, 2022-07-10 18:42:54.232
134.0, 41668.77021417263, 34614.649071055544, -10107.391787456489, -34041.63975019929, 18229.680446348244, 33590.24627092436, 205.03255188853169, 27027.371767446017, 0.076, 0.97, 0.114, 192.0, 0.0, 0.0, 0.0, 0.0, 0.0, 0.0, 0.0, 0.0, 0.0, 1.657492974232922E9, 0.0, 2022-07-10 18:42:54.232
135.0, 41416.888405905775, 34659.97840881091, -10003.523230972676, -33769.21668877801, 18319.91443871432, 32118.294491564575, 281.74373885914554, 25817.181267402324, 0.076, 0.97, 0.114, 192.0, 0.0, 0.0, 0.0, 0.0, 0.0, 0.0, 0.0, 0.0, 0.0, 1.65749297423975E9, 0.0, 2022-07-10 18:42:54.239
136.0, 42142.269568713855, 34627.41191713952, -10118.299438750677, -33547.04034889225, 18191.45896332967, 34190.61412699391, 121.2135101811302, 27157.52597540927, 0.076, 0.97, 0.114, 192.0, 0.0, 0.0, 0.0, 0.0, 0.0, 0.0, 0.0, 0.0, 0.0, 1.657492974239818E9, 0.0, 2022-07-10 18:42:54.239
137.0, 42467.44274704966, 34568.06803561068, -10244.206815267422, -33817.69762250157, 18078.113267196808, 35894.264089377415, 23.938718311633863, 28526.324454107817, 0.076, 0.97, 0.114, 192.0, 0.0, 0.0, 0.0, 0.0, 0.0, 0.0, 0.0, 0.0, 0.0, 1.65749297424541E9, 0.0, 2022-07-10 18:42:54.245
138.0, 41807.99923038474, 34600.41100983751, -10143.86983440755, -34054.246134072084, 18186.586283038414, 34089.27131763355, 168.17452528173033, 27391.258167178414, 0.076, 0.97, 0.114, 192.0, 0.0, 0.0, 0.0, 0.0, 0.0, 0.0, 0.0, 0.0, 0.0, 1.657492974245456E9, 0.0, 2022-07-10 18:42:54.245
139.0, 41380.9691525661, 34665.052254802256, -10001.600980949519, -33830.86279998574, 18316.33815960147, 32125.49175327918, 291.08676804146387, 25853.72636958675, 0.076, 0.97, 0.114, 192.0, 0.0, 0.0, 0.0, 0.0, 0.0, 0.0, 0.0, 0.0, 0.0, 1.65749297425151E9, 0.0, 2022-07-10 18:42:54.251
140.0, 41992.35641865211, 34644.73451909239, -10077.507505119742, -33540.22306683339, 18224.89717303481, 33685.062370903775, 166.766365381046, 26779.021534803098, 0.08, 0.968, 0.112, 192.0, 2.0, 128.0, 30.0, 64.0, 3.0, 128.0, 0.0, 0.0, 0.0, 1.657492974251531E9, 0.0, 2022-07-10 18:42:54.251
141.0, 42489.25804963804, 34577.79104444874, -10228.895870315537, -33739.734737841456, 18081.980118987576, 35841.17869629606, 30.644241648225982, 28416.085650454243, 0.08, 0.968, 0.112, 192.0, 0.0, 0.0, 0.0, 0.0, 0.0, 0.0, 0.0, 0.0, 0.0, 1.657492974258838E9, 0.0, 2022-07-10 18:42:54.258
142.0, 41948.45759254189, 34593.59372777864, -10161.639471249518, -34029.45804947115, 18164.994497894586, 34560.803718662704, 144.23580697009646, 27685.09419978788, 0.08, 0.968, 0.112, 192.0, 0.0, 0.0, 0.0, 0.0, 0.0, 0.0, 0.0, 0.0, 0.0, 1.657492974258905E9, 0.0, 2022-07-10 18:42:54.258
143.0, 41382.39966421123, 34654.345769208165, -10011.949838632327, -33885.289297734416, 18312.203086877238, 32260.026903155675, 293.76897737610074, 25964.054580218148, 0.08, 0.968, 0.112, 192.0, 0.0, 0.0, 0.0, 0.0, 0.0, 0.0, 0.0, 0.0, 0.0, 1.657492974264809E9, 0.0, 2022-07-10 18:42:54.264
144.0, 41840.610425545034, 34648.28844646078, -10052.674717029897, -33566.97810494639, 18253.84268210443, 33201.05769646856, 198.99758088559878, 26434.335283557808, 0.08, 0.968, 0.112, 192.0, 0.0, 0.0, 0.0, 0.0, 0.0, 0.0, 0.0, 0.0, 0.0, 1.657492974271291E9, 0.0, 2022-07-10 18:42:54.271
145.0, 42483.89363096877, 34581.38967530605, -10223.330285946166, -33684.88355694814, 18086.025784733985, 35681.743703096356, 25.011602045488605, 28264.02673292479, 0.08, 0.968, 0.112, 192.0, 0.0, 0.0, 0.0, 0.0, 0.0, 0.0, 0.0, 0.0, 0.0, 1.657492974271351E9, 0.0, 2022-07-10 18:42:54.271
146.0, 42101.25411763837, 34580.85323343912, -10198.095166456123, -34016.87401734281, 18128.896430599267, 35021.3167096754, 98.19121339216393, 28006.556988544107, 0.08, 0.968, 0.112, 192.0, 0.0, 0.0, 0.0, 0.0, 0.0, 0.0, 0.0, 0.0, 0.0, 1.657492974278789E9, 0.0, 2022-07-10 18:42:54.278
147.0, 41427.505484522044, 34654.16695525253, -10027.193728350847, -33942.822687962376, 18296.646272736343, 32503.638565974066, 277.72042485719027, 26182.900510180058, 0.08, 0.968, 0.112, 192.0, 0.0, 0.0, 0.0, 0.0, 0.0, 0.0, 0.0, 0.0, 0.0, 1.657492974278808E9, 0.0, 2022-07-10 18:42:54.278
148.0, 41704.68946751231, 34662.79472861227, -10026.277306828179, -33598.8293407952, 18275.09919108143, 32761.980028388505, 228.41247658878288, 26157.55363196774, 0.08, 0.968, 0.112, 192.0, 0.0, 0.0, 0.0, 0.0, 0.0, 0.0, 0.0, 0.0, 0.0, 1.65749297428684E9, 0.0, 2022-07-10 18:42:54.286
149.0, 42442.453496748625, 34601.26037612681, -10192.931913486947, -33625.003233552365, 18106.432927421683, 35383.45967334029, 42.44596272062811, 28031.389776633954, 0.08, 0.968, 0.112, 192.0, 0.0, 0.0, 0.0, 0.0, 0.0, 0.0, 0.0, 0.0, 0.0, 1.657492974286878E9, 0.0, 2022-07-10 18:42:54.286
150.0, 42240.12550593919, 34589.50335854332, -10202.051425224714, -33960.74878701553, 18109.852744323343, 35376.53063255914, 77.29233232645183, 28233.337787787652, 0.078, 0.964, 0.11, 192.0, 2.0, 112.0, 30.0, 32.0, 3.0, 112.0, 0.0, 0.0, 0.0, 1.657492974294004E9, 0.0, 2022-07-10 18:42:54.294
