%OpenBCI Raw EEG Data
%Number of channels = 8
%Sample Rate = 250 Hz
%Board = OpenBCI_GUI$BoardCytonSerial
Sample Index, EXG Channel 0, EXG Channel 1, EXG Channel 2, EXG Channel 3, EXG Channel 4, EXG Channel 5, EXG Channel 6, EXG Channel 7, Accel Channel 0, Accel Channel 1, Accel Channel 2, Other, Other, Other, Other, Other, Other, Other, Analog Channel 0, Analog Channel 1, Analog Channel 2, Timestamp, Other, Timestamp (Formatted)
11.0, 39609.32518354955, 24718.41421346834, -23771.12493170797, -45987.3060568936, 4361.272378119514, 45767.92368506476, -21179.171941181656, 15798.257684499942, 0.0, 0.0, 0.0, 192.0, 0.0, 0.0, 0.0, 0.0, 0.0, 0.0, 0.0, 0.0, 0.0, 1.657492770503466E9, 0.0, 2022-07-10 18:39:30.503
12.0, 29258.947582119417, 23174.26629951791, -23247.043579464385, -47770.461174304626, 5583.510468424615, 33427.32440558963, -19957.29147878784, 10537.484054265506, 0.0, 0.0, 0.0, 192.0, 0.0, 0.0, 0.0, 0.0, 0.0, 0.0, 0.0, 0.0, 0.0, 1.65749277050349E9, 0.0, 2022-07-10 18:39:30.503
13.0, 20075.21928253404, 22833.2904378522, -22292.668794711684, -46127.74206730629, 6352.902216065195, 17596.76845035177, -19173.41580074022, 10375.255093008887, 0.0, 0.0, 0.0, 192.0, 0.0, 0.0, 0.0, 0.0, 0.0, 0.0, 0.0, 0.0, 0.0, 1.657492770503498E9, 0.0, 2022-07-10 18:39:30.503
14.0, 29390.398191261076, 24397.845494490328, -22666.47936898224, -43962.17095400941, 5212.672676166615, 27988.943813913324, -20306.090451012904, 15807.690120660081, 0.0, 0.0, 0.0, 192.0, 0.0, 0.0, 0.0, 0.0, 0.0, 0.0, 0.0, 0.0, 0.0, 1.657492770503506E9, 0.0, 2022-07-10 18:39:30.503
0.0, 0.0, 0.0, 0.0, 0.0, 0.0, 0.0, 0.0, 0.0, -0.016, 0.9440000000000001, 0.25, 192.0, 255.0, 128.0, 29.0, 128.0, 7.0, 208.0, 0.0, 0.0, 0.0, 1.657492770604615E9, 0.0, 2022-07-10 18:39:30.604
1.0, 35649.378377125075, 32511.841656189164, -12599.276018056396, -37325.89332173984, 11712.716425981096, 32105.464590247226, -11967.839237193972, 22989.50677985034, -0.016, 0.9440000000000001, 0.25, 192.0, 0.0, 0.0, 0.0, 0.0, 0.0, 0.0, 0.0, 0.0, 0.0, 1.657492770616121E9, 0.0, 2022-07-10 18:39:30.616
2.0, 37291.67280097876, 32565.664656837544, -12853.124779835318, -37726.168361445474, 11492.395280885135, 36213.08937228792, -12197.212838794332, 23054.75152191538, -0.016, 0.9440000000000001, 0.25, 192.0, 0.0, 0.0, 0.0, 0.0, 0.0, 0.0, 0.0, 0.0, 0.0, 1.657492770622353E9, 0.0, 2022-07-10 18:39:30.622
3.0, 35641.08587993215, 32383.162663359963, -12851.671916445723, -38449.716681208214, 11694.097422849825, 33024.65772922728, -12009.078205714013, 21768.274518045728, -0.016, 0.9440000000000001, 0.25, 192.0, 0.0, 0.0, 0.0, 0.0, 0.0, 0.0, 0.0, 0.0, 0.0, 1.657492770622372E9, 0.0, 2022-07-10 18:39:30.622
4.0, 33814.59073002228, 32300.81883678661, -12613.49172752997, -38191.88930891625, 11938.245527535144, 28565.75293132698, -11756.078810224391, 21513.44227951077, -0.016, 0.9440000000000001, 0.25, 192.0, 0.0, 0.0, 0.0, 0.0, 0.0, 0.0, 0.0, 0.0, 0.0, 1.657492770630474E9, 0.0, 2022-07-10 18:39:30.630
5.0, 35235.96051167971, 32472.301420247728, -12572.453924710027, -37399.564671464526, 11762.158484716236, 31169.909974325896, -11916.11730052439, 22811.206914330356, -0.016, 0.9440000000000001, 0.25, 192.0, 0.0, 0.0, 0.0, 0.0, 0.0, 0.0, 0.0, 0.0, 0.0, 1.657492770630495E9, 0.0, 2022-07-10 18:39:30.630
6.0, 37274.30549553699, 32579.5897936332, -12815.596200894857, -37586.96169697782, 11494.742214052942, 36027.97222470906, -12197.682225427894, 23236.180631659106, -0.016, 0.9440000000000001, 0.25, 192.0, 0.0, 0.0, 0.0, 0.0, 0.0, 0.0, 0.0, 0.0, 0.0, 1.657492770638541E9, 0.0, 2022-07-10 18:39:30.638
7.0, 36119.301452553445, 32422.300567901206, -12870.603843999368, -38358.6556742973, 11645.012992025971, 34033.771936151024, -12055.391020225408, 22038.864736421674, -0.016, 0.9440000000000001, 0.25, 192.0, 0.0, 0.0, 0.0, 0.0, 0.0, 0.0, 0.0, 0.0, 0.0, 1.65749277063858E9, 0.0, 2022-07-10 18:39:30.638
8.0, 33988.35319141784, 32302.361107154025, -12648.047524457876, -38310.822941162936, 11929.818919875494, 29031.540934031123, -11755.587071846376, 21424.728205767657, 0.004, 0.966, 0.24, 192.0, 0.0, 32.0, 30.0, 48.0, 7.0, 128.0, 0.0, 0.0, 0.0, 1.65749277064507E9, 0.0, 2022-07-10 18:39:30.645
9.0, 34821.13448633367, 32448.139184491538, -12540.580337116759, -37504.3049459821, 11842.155378121779, 30262.116225018053, -11823.134043590313, 22557.80518744054, 0.004, 0.966, 0.24, 192.0, 0.0, 0.0, 0.0, 0.0, 0.0, 0.0, 0.0, 0.0, 0.0, 1.657492770645091E9, 0.0, 2022-07-10 18:39:30.645
10.0, 37113.79761860343, 32596.174788019038, -12760.409743834703, -37457.992131470695, 11542.194967531559, 35543.69932934038, -12119.026436689668, 23329.208592082097, 0.004, 0.966, 0.24, 192.0, 0.0, 0.0, 0.0, 0.0, 0.0, 0.0, 0.0, 0.0, 0.0, 1.657492770653314E9, 0.0, 2022-07-10 18:39:30.653
11.0, 36545.57157106061, 32467.607553912112, -12887.390004085304, -38255.83764980288, 11596.844982724784, 34911.32377521083, -12079.665014703873, 22271.859320623797, 0.004, 0.966, 0.24, 192.0, 0.0, 0.0, 0.0, 0.0, 0.0, 0.0, 0.0, 0.0, 0.0, 1.657492770653383E9, 0.0, 2022-07-10 18:39:30.653
12.0, 34261.44680517278, 32312.709964836835, -12692.885123835222, -38401.280450973565, 11902.818012573483, 29706.384802625755, -11784.867857082827, 21382.259891302576, 0.004, 0.966, 0.24, 192.0, 0.0, 0.0, 0.0, 0.0, 0.0, 0.0, 0.0, 0.0, 0.0, 1.657492770661175E9, 0.0, 2022-07-10 18:39:30.661
13.0, 34458.36567382404, 32414.768030019764, -12534.165386458086, -37634.950892323366, 11894.950198525215, 29488.075314530768, -11779.145810502268, 22277.000221848517, 0.004, 0.966, 0.24, 192.0, 0.0, 0.0, 0.0, 0.0, 0.0, 0.0, 0.0, 0.0, 0.0, 1.657492770661215E9, 0.0, 2022-07-10 18:39:30.661
14.0, 36838.26766470286, 32583.143721001594, -12719.394292759216, -37373.480185685185, 11579.500029027466, 34807.00818383791, -12089.633892730939, 23318.27858904345, 0.004, 0.966, 0.24, 192.0, 0.0, 0.0, 0.0, 0.0, 0.0, 0.0, 0.0, 0.0, 0.0, 1.657492770668252E9, 0.0, 2022-07-10 18:39:30.668
15.0, 36876.846775632715, 32498.676478704987, -12900.130498424829, -38133.12657274325, 11554.913110126628, 35563.23475399432, -12128.168300171888, 22510.240675239645, 0.004, 0.966, 0.24, 192.0, 0.0, 0.0, 0.0, 0.0, 0.0, 0.0, 0.0, 0.0, 0.0, 1.657492770668286E9, 0.0, 2022-07-10 18:39:30.668
16.0, 34589.25748935431, 32328.132668510996, -12747.71395298409, -38467.88864945038, 11851.856035215384, 30511.539341394826, -11841.373067065844, 21416.078080663454, 0.004, 0.966, 0.24, 192.0, 0.0, 0.0, 0.0, 0.0, 0.0, 0.0, 0.0, 0.0, 0.0, 1.65749277067462E9, 0.0, 2022-07-10 18:39:30.674
17.0, 34171.05635059552, 32377.93235515742, -12552.426761678073, -37791.50251048833, 11913.725663867674, 28940.43522363129, -11766.338260929379, 22017.07178557775, 0.004, 0.966, 0.24, 192.0, 0.0, 0.0, 0.0, 0.0, 0.0, 0.0, 0.0, 0.0, 0.0, 1.657492770682731E9, 0.0, 2022-07-10 18:39:30.682
18.0, 36476.52703243816, 32562.580116102712, -12683.720908608546, -37332.509438098605, 11610.34543637579, 33941.772155972976, -12061.046011572602, 23247.200041675573, 0.022, 0.9520000000000001, 0.222, 192.0, 0.0, 176.0, 29.0, 192.0, 6.0, 240.0, 0.0, 0.0, 0.0, 1.65749277068276E9, 0.0, 2022-07-10 18:39:30.682
19.0, 37122.358336729805, 32529.745403497865, -12896.353053611881, -37989.874242529186, 11515.842260818752, 36022.205474639595, -12169.74254485876, 22740.195422195844, 0.022, 0.9520000000000001, 0.222, 192.0, 0.0, 0.0, 0.0, 0.0, 0.0, 0.0, 0.0, 0.0, 0.0, 1.657492770691066E9, 0.0, 2022-07-10 18:39:30.691
20.0, 34981.39649407822, 32352.07138682263, -12789.198790693139, -38485.725341525715, 11799.016511323038, 31439.092032801156, -11894.838439802938, 21501.394689249362, 0.022, 0.9520000000000001, 0.222, 192.0, 0.0, 0.0, 0.0, 0.0, 0.0, 0.0, 0.0, 0.0, 0.0, 1.657492770691107E9, 0.0, 2022-07-10 18:39:30.691
21.0, 33995.751618832546, 32351.557296700157, -12566.798933362834, -37941.41566055008, 11938.69256242425, 28643.537002031448, -11745.998173475049, 21778.265747817248, 0.022, 0.9520000000000001, 0.222, 192.0, 0.0, 0.0, 0.0, 0.0, 0.0, 0.0, 0.0, 0.0, 0.0, 1.657492770697425E9, 0.0, 2022-07-10 18:39:30.697
22.0, 36055.93425702265, 32533.05346167725, -12636.134044663197, -37328.061440952, 11670.583387682842, 32952.26042893653, -12007.625342324418, 23087.630938009137, 0.022, 0.9520000000000001, 0.222, 192.0, 0.0, 0.0, 0.0, 0.0, 0.0, 0.0, 0.0, 0.0, 0.0, 1.657492770697446E9, 0.0, 2022-07-10 18:39:30.697
23.0, 37250.9926260701, 32545.771604272322, -12871.855541688865, -37832.361499352635, 11505.94043802505, 36199.11953200335, -12180.426678708396, 22914.00258708031, 0.022, 0.9520000000000001, 0.222, 192.0, 0.0, 0.0, 0.0, 0.0, 0.0, 0.0, 0.0, 0.0, 0.0, 1.657492770705299E9, 0.0, 2022-07-10 18:39:30.705
24.0, 35392.936812989334, 32364.253087550773, -12828.15788127874, -38463.9770941707, 11741.058437950425, 32390.06935239665, -11962.541873758064, 21630.94540011232, 0.022, 0.9520000000000001, 0.222, 192.0, 0.0, 0.0, 0.0, 0.0, 0.0, 0.0, 0.0, 0.0, 0.0, 1.657492770705319E9, 0.0, 2022-07-10 18:39:30.705
25.0, 33920.35918478479, 32321.807124830142, -12596.68321569958, -38091.28410712291, 11946.627431705885, 28586.629460648237, -11762.717278327618, 21552.200204396275, 0.022, 0.9520000000000001, 0.222, 192.0, 0.0, 0.0, 0.0, 0.0, 0.0, 0.0, 0.0, 0.0, 0.0, 1.657492770713205E9, 0.0, 2022-07-10 18:39:30.713
26.0, 35594.12486483155, 32501.42574327299, -12594.604503465236, -37362.639589624356, 11742.399542617744, 31896.632241801293, -11927.717855896695, 22926.072529086177, 0.022, 0.9520000000000001, 0.222, 192.0, 0.0, 0.0, 0.0, 0.0, 0.0, 0.0, 0.0, 0.0, 0.0, 1.657492770713223E9, 0.0, 2022-07-10 18:39:30.713
27.0, 37271.89150713581, 32567.653962094068, -12831.935326091687, -37674.98286664282, 11517.13866199716, 36125.13525785628, -12144.954460257824, 23153.63563938566, 0.022, 0.9520000000000001, 0.222, 192.0, 0.0, 0.0, 0.0, 0.0, 0.0, 0.0, 0.0, 0.0, 0.0, 1.657492770720509E9, 0.0, 2022-07-10 18:39:30.720
28.0, 35837.80358288331, 32406.74375376031, -12851.671916445723, -38394.284354959054, 11703.909838665706, 33384.92314635791, -11981.607911778441, 21880.927310100476, 0.032, 0.96, 0.226, 192.0, 1.0, 0.0, 30.0, 0.0, 7.0, 16.0, 0.0, 0.0, 0.0, 1.657492770720644E9, 0.0, 2022-07-10 18:39:30.720
29.0, 33979.14427270225, 32317.403831172447, -12628.579155037303, -38208.78722772446, 11952.327126541988, 28835.449079924714, -11729.681400022675, 21487.24603500915, 0.032, 0.96, 0.226, 192.0, 0.0, 0.0, 0.0, 0.0, 0.0, 0.0, 0.0, 0.0, 0.0, 1.657492770727864E9, 0.0, 2022-07-10 18:39:30.727
30.0, 35134.282426152524, 32463.80775735471, -12572.29746249884, -37441.854171973966, 11804.649150925774, 30901.93491005122, -11870.20681741319, 22709.35001484752, 0.032, 0.96, 0.226, 192.0, 0.0, 0.0, 0.0, 0.0, 0.0, 0.0, 0.0, 0.0, 0.0, 1.657492770727884E9, 0.0, 2022-07-10 18:39:30.727
31.0, 37163.86552618331, 32568.369217916636, -12805.336750189872, -37550.975388404775, 11527.196947002049, 35792.340134661215, -12154.431599906875, 23254.55376560137, 0.032, 0.96, 0.226, 192.0, 0.0, 0.0, 0.0, 0.0, 0.0, 0.0, 0.0, 0.0, 0.0, 1.657492770735181E9, 0.0, 2022-07-10 18:39:30.735
32.0, 36238.302140033506, 32432.18003895045, -12879.678652248223, -38315.06977260945, 11644.565957136865, 34280.78106412662, -12044.013982297658, 22110.211504723015, 0.032, 0.96, 0.226, 192.0, 0.0, 0.0, 0.0, 0.0, 0.0, 0.0, 0.0, 0.0, 0.0, 1.65749277074281E9, 0.0, 2022-07-10 18:39:30.742
33.0, 34150.3586352299, 32317.850866061555, -12664.476056632526, -38324.815133191965, 11929.304829753022, 29334.18355395598, -11753.821284034406, 21433.735958783145, 0.032, 0.96, 0.226, 192.0, 0.0, 0.0, 0.0, 0.0, 0.0, 0.0, 0.0, 0.0, 0.0, 1.657492770742828E9, 0.0, 2022-07-10 18:39:30.742
34.0, 34731.5486945568, 32436.71744307488, -12544.268374951886, -37557.23387685226, 11860.439105086221, 30039.872829898934, -11803.017473580538, 22458.831662992437, 0.032, 0.96, 0.226, 192.0, 0.0, 0.0, 0.0, 0.0, 0.0, 0.0, 0.0, 0.0, 0.0, 1.657492770750113E9, 0.0, 2022-07-10 18:39:30.750
35.0, 36962.81158480782, 32574.046561008283, -12750.530272785458, -37447.93384646581, 11555.069572337816, 35228.33856682045, -12099.62512250246, 23309.94138836162, 0.032, 0.96, 0.226, 192.0, 0.0, 0.0, 0.0, 0.0, 0.0, 0.0, 0.0, 0.0, 0.0, 1.657492770750159E9, 0.0, 2022-07-10 18:39:30.750
36.0, 36597.986411808306, 32466.847594600633, -12890.36278609786, -38213.726963249086, 11582.428107551112, 35030.190352224156, -12089.142154352923, 22351.878565773794, 0.032, 0.96, 0.226, 192.0, 0.0, 0.0, 0.0, 0.0, 0.0, 0.0, 0.0, 0.0, 0.0, 1.657492770757479E9, 0.0, 2022-07-10 18:39:30.757
37.0, 34406.24140575426, 32330.546656912167, -12712.04056883342, -38414.6691459023, 11872.084363947435, 29986.720381584215, -11808.806575394461, 21417.19566788622, 0.032, 0.96, 0.226, 192.0, 0.0, 0.0, 0.0, 0.0, 0.0, 0.0, 0.0, 0.0, 0.0, 1.657492770757504E9, 0.0, 2022-07-10 18:39:30.757
38.0, 34407.358992977024, 32415.237416653326, -12545.497720896927, -37694.719456996856, 11885.562465853985, 29361.273868235814, -11784.085546026892, 22208.469773348545, 0.044, 0.9400000000000001, 0.23, 192.0, 1.0, 96.0, 29.0, 96.0, 7.0, 48.0, 0.0, 0.0, 0.0, 1.657492770765691E9, 0.0, 2022-07-10 18:39:30.765
39.0, 36668.17088939797, 32577.667543610045, -12708.106661809286, -37383.82904336799, 11592.86637221174, 34480.560956068155, -12065.158732552378, 23289.690707885115, 0.044, 0.9400000000000001, 0.23, 192.0, 0.0, 0.0, 0.0, 0.0, 0.0, 0.0, 0.0, 0.0, 0.0, 1.65749277076571E9, 0.0, 2022-07-10 18:39:30.765
40.0, 36883.753464669404, 32512.15458061154, -12893.6931960217, -38085.20443263107, 11550.129836813192, 35612.96738540738, -12120.971038457279, 22591.75748726815, 0.044, 0.9400000000000001, 0.23, 192.0, 0.0, 0.0, 0.0, 0.0, 0.0, 0.0, 0.0, 0.0, 0.0, 1.657492770774224E9, 0.0, 2022-07-10 18:39:30.774
41.0, 34743.50687784039, 32348.15983154295, -12762.443752580137, -38464.31237033753, 11830.86774717185, 30830.18581034968, -11853.711230005174, 21475.243148236652, 0.044, 0.9400000000000001, 0.23, 192.0, 0.0, 0.0, 0.0, 0.0, 0.0, 0.0, 0.0, 0.0, 0.0, 1.657492770774256E9, 0.0, 2022-07-10 18:39:30.774
42.0, 34169.64819069483, 32379.809901691664, -12560.942776315544, -37853.886229263095, 11921.16879477129, 28918.15053440935, -11758.492798625564, 21958.77843603831, 0.044, 0.9400000000000001, 0.23, 192.0, 0.0, 0.0, 0.0, 0.0, 0.0, 0.0, 0.0, 0.0, 0.0, 1.657492770780369E9, 0.0, 2022-07-10 18:39:30.780
43.0, 36296.12610293938, 32548.140889184582, -12664.766629310445, -37357.49868839964, 11641.079085001837, 33583.339581887674, -12030.915860046847, 23186.49270373496, 0.044, 0.9400000000000001, 0.23, 192.0, 0.0, 0.0, 0.0, 0.0, 0.0, 0.0, 0.0, 0.0, 0.0, 1.657492770780464E9, 0.0, 2022-07-10 18:39:30.780
44.0, 37075.64319081821, 32530.035976175783, -12877.868160947342, -37946.1542303746, 11527.219298746502, 35968.82950888032, -12152.88932953946, 22795.515989722728, 0.044, 0.9400000000000001, 0.23, 192.0, 0.0, 0.0, 0.0, 0.0, 0.0, 0.0, 0.0, 0.0, 0.0, 1.657492770788175E9, 0.0, 2022-07-10 18:39:30.788
45.0, 35125.051155692476, 32374.22196557784, -12786.404822636227, -38466.12286163841, 11797.653054911263, 31752.016455175457, -11897.453593904209, 21582.777390811134, 0.044, 0.9400000000000001, 0.23, 192.0, 0.0, 0.0, 0.0, 0.0, 0.0, 0.0, 0.0, 0.0, 0.0, 1.6574927707882E9, 0.0, 2022-07-10 18:39:30.788
46.0, 34026.82054362542, 32365.41537826245, -12565.614290906704, -37994.076370486786, 11953.198844575745, 28702.858531815833, -11736.722199526097, 21751.77893063771, 0.044, 0.9400000000000001, 0.23, 192.0, 0.0, 0.0, 0.0, 0.0, 0.0, 0.0, 0.0, 0.0, 0.0, 1.657492770795231E9, 0.0, 2022-07-10 18:39:30.795
47.0, 35858.16602208209, 32529.18660988648, -12617.358579320738, -37363.53365940257, 11704.468632277089, 32578.82983432172, -11970.499094784152, 23040.98284733091, 0.042, 0.9400000000000001, 0.226, 192.0, 1.0, 80.0, 29.0, 96.0, 7.0, 16.0, 0.0, 0.0, 0.0, 1.657492770802484E9, 0.0, 2022-07-10 18:39:30.802
48.0, 37151.102680099335, 32559.07089222323, -12843.40177099726, -37785.869870885595, 11522.681894622076, 36071.66988511919, -12159.192521475856, 23001.867294534124, 0.042, 0.9400000000000001, 0.226, 192.0, 0.0, 0.0, 0.0, 0.0, 0.0, 0.0, 0.0, 0.0, 0.0, 1.657492770802544E9, 0.0, 2022-07-10 18:39:30.802
49.0, 35523.73922154179, 32404.41917233696, -12821.184137008684, -38437.53498048007, 11734.397618102745, 32719.80228660134, -11963.391240047365, 21750.46017771485, 0.042, 0.9400000000000001, 0.226, 192.0, 0.0, 0.0, 0.0, 0.0, 0.0, 0.0, 0.0, 0.0, 0.0, 1.657492770810377E9, 0.0, 2022-07-10 18:39:30.810
50.0, 33997.74092408907, 32360.63210494901, -12594.716262187512, -38141.776697847454, 11949.533158485076, 28766.65041049128, -11746.735781042074, 21578.21763494225, 0.042, 0.9400000000000001, 0.226, 192.0, 0.0, 0.0, 0.0, 0.0, 0.0, 0.0, 0.0, 0.0, 0.0, 1.657492770810397E9, 0.0, 2022-07-10 18:39:30.810
51.0, 35425.36919419398, 32516.446115546958, -12571.179875276075, -37408.95240413576, 11769.065173752926, 31585.33949677223, -11918.821861603483, 22833.938638441403, 0.042, 0.9400000000000001, 0.226, 192.0, 0.0, 0.0, 0.0, 0.0, 0.0, 0.0, 0.0, 0.0, 0.0, 1.657492770818767E9, 0.0, 2022-07-10 18:39:30.818
52.0, 37138.5633514599, 32586.138854758607, -12805.96259903462, -37646.462040717845, 11527.37576095769, 35931.72561308451, -12158.432562164375, 23141.990380524443, 0.042, 0.9400000000000001, 0.226, 192.0, 0.0, 0.0, 0.0, 0.0, 0.0, 0.0, 0.0, 0.0, 0.0, 1.657492770818806E9, 0.0, 2022-07-10 18:39:30.818
53.0, 35933.53610438539, 32449.547344392224, -12842.239480285583, -38376.42531113927, 11678.07122207537, 33648.629027441624, -12014.152051705367, 21951.737636534886, 0.042, 0.9400000000000001, 0.226, 192.0, 0.0, 0.0, 0.0, 0.0, 0.0, 0.0, 0.0, 0.0, 0.0, 1.657492770825864E9, 0.0, 2022-07-10 18:39:30.825
54.0, 34095.93213748123, 32369.617506220045, -12625.673428258113, -38265.00186502956, 11926.756730885118, 29082.927594533874, -11760.459752137633, 21473.231491235674, 0.042, 0.9400000000000001, 0.226, 192.0, 0.0, 0.0, 0.0, 0.0, 0.0, 0.0, 0.0, 0.0, 0.0, 1.657492770825915E9, 0.0, 2022-07-10 18:39:30.825
55.0, 35027.77636382298, 32493.535577480267, -12549.833959321257, -37502.2038820033, 11810.773528906528, 30678.97625910953, -11861.53434056453, 22606.062603719547, 0.042, 0.9400000000000001, 0.226, 192.0, 0.0, 0.0, 0.0, 0.0, 0.0, 0.0, 0.0, 0.0, 0.0, 1.657492770832527E9, 0.0, 2022-07-10 18:39:30.832
56.0, 37026.871684416736, 32592.665564139555, -12776.39124112025, -37540.626530721966, 11529.521528425399, 35550.00252127678, -12142.294602667644, 23232.939628713088, 0.042, 0.9400000000000001, 0.226, 192.0, 0.0, 0.0, 0.0, 0.0, 0.0, 0.0, 0.0, 0.0, 0.0, 1.657492770832548E9, 0.0, 2022-07-10 18:39:30.832
57.0, 36322.90349279684, 32485.533652965267, -12865.909977663754, -38296.78604564501, 11623.175337693136, 34495.514273108754, -12061.873026117448, 22172.52816826441, 0.052000000000000005, 0.9420000000000001, 0.22, 192.0, 1.0, 160.0, 29.0, 112.0, 6.0, 224.0, 0.0, 0.0, 0.0, 1.657492770841091E9, 0.0, 2022-07-10 18:39:30.841
58.0, 34294.21446254426, 32375.630125478525, -12667.225321200529, -38369.87625001386, 11905.656684119307, 29630.43357496662, -11786.253665239057, 21431.724301782167, 0.052000000000000005, 0.9420000000000001, 0.22, 192.0, 0.0, 0.0, 0.0, 0.0, 0.0, 0.0, 0.0, 0.0, 0.0, 1.657492770841112E9, 0.0, 2022-07-10 18:39:30.841
59.0, 34670.10374904916, 32470.937963835953, -12535.774712058868, -37624.937310807385, 11867.882235989839, 29905.1588660668, -11802.749252647072, 22371.056362516447, 0.052000000000000005, 0.9420000000000001, 0.22, 192.0, 0.0, 0.0, 0.0, 0.0, 0.0, 0.0, 0.0, 0.0, 0.0, 1.657492770848777E9, 0.0, 2022-07-10 18:39:30.848
60.0, 36817.212321425955, 32602.701497399987, -12724.222269561562, -37441.004805684664, 11579.187104605093, 34966.17495610416, -12090.1032793645, 23277.307841456874, 0.052000000000000005, 0.9420000000000001, 0.22, 192.0, 0.0, 0.0, 0.0, 0.0, 0.0, 0.0, 0.0, 0.0, 0.0, 1.657492770848808E9, 0.0, 2022-07-10 18:39:30.848
61.0, 36651.40708105649, 32519.10597313714, -12871.140285866295, -38175.70664593061, 11588.820706465329, 35192.642830925324, -12097.926389923858, 22422.91240965276, 0.052000000000000005, 0.9420000000000001, 0.22, 192.0, 0.0, 0.0, 0.0, 0.0, 0.0, 0.0, 0.0, 0.0, 0.0, 1.657492770855717E9, 0.0, 2022-07-10 18:39:30.855
62.0, 34572.94071590194, 32391.969250675353, -12697.780155870934, -38429.19777979825, 11879.415736128776, 30340.660255034003, -11816.450871998177, 21458.59109861745, 0.052000000000000005, 0.9420000000000001, 0.22, 192.0, 0.0, 0.0, 0.0, 0.0, 0.0, 0.0, 0.0, 0.0, 0.0, 1.657492770855737E9, 0.0, 2022-07-10 18:39:30.855
63.0, 34390.930460802374, 32451.022559526275, -12522.810700274791, -37752.18579199145, 11918.128957525369, 29319.319643893203, -11764.684231839685, 22135.893659102163, 0.052000000000000005, 0.9420000000000001, 0.22, 192.0, 0.0, 0.0, 0.0, 0.0, 0.0, 0.0, 0.0, 0.0, 0.0, 1.657492770862484E9, 0.0, 2022-07-10 18:39:30.862
64.0, 36520.42585854839, 32591.92795657253, -12674.422582915138, -37375.357732219425, 11614.994599222493, 34192.044638639054, -12051.568871923551, 23242.372064873227, 0.052000000000000005, 0.9420000000000001, 0.22, 192.0, 0.0, 0.0, 0.0, 0.0, 0.0, 0.0, 0.0, 0.0, 0.0, 1.657492770870163E9, 0.0, 2022-07-10 18:39:30.870
65.0, 36913.45893305051, 32550.912505497043, -12867.586358497902, -38039.24924603096, 11547.604089689743, 35703.40254347355, -12133.800939774626, 22644.95463907178, 0.052000000000000005, 0.9420000000000001, 0.22, 192.0, 0.0, 0.0, 0.0, 0.0, 0.0, 0.0, 0.0, 0.0, 0.0, 1.657492770870184E9, 0.0, 2022-07-10 18:39:30.870
66.0, 34911.837865333306, 32413.672794541457, -12737.722723212568, -38458.880896434894, 11831.247726827589, 31174.983820317248, -11869.379802868343, 21519.34314004697, 0.052000000000000005, 0.9420000000000001, 0.22, 192.0, 0.0, 0.0, 0.0, 0.0, 0.0, 0.0, 0.0, 0.0, 0.0, 1.657492770879031E9, 0.0, 2022-07-10 18:39:30.879
67.0, 34198.57134802, 32431.12950696105, -12534.679476580559, -37891.92889832603, 11939.832501391471, 28956.103796494463, -11754.178911945692, 21911.370386048602, 0.05, 0.9460000000000001, 0.212, 192.0, 1.0, 144.0, 29.0, 144.0, 6.0, 160.0, 0.0, 0.0, 0.0, 1.65749277087905E9, 0.0, 2022-07-10 18:39:30.879
68.0, 36162.663836796746, 32574.560651130756, -12629.808500982344, -37357.00695002162, 11666.984756825537, 33309.6648227769, -12017.258944184656, 23138.279990944862, 0.05, 0.9460000000000001, 0.212, 192.0, 0.0, 0.0, 0.0, 0.0, 0.0, 0.0, 0.0, 0.0, 0.0, 1.657492770885352E9, 0.0, 2022-07-10 18:39:30.885
69.0, 37079.82296703136, 32568.592735361188, -12846.575718709913, -37891.52656692584, 11529.543880169855, 36001.150131362694, -12161.762972088216, 22855.508071840773, 0.05, 0.9460000000000001, 0.212, 192.0, 0.0, 0.0, 0.0, 0.0, 0.0, 0.0, 0.0, 0.0, 0.0, 1.657492770885374E9, 0.0, 2022-07-10 18:39:30.885
70.0, 35304.736829368696, 32420.199503922406, -12780.168685933195, -38453.24825683216, 11775.636586622786, 32137.964026685244, -11909.322370209977, 21653.744179456735, 0.05, 0.9460000000000001, 0.212, 192.0, 0.0, 0.0, 0.0, 0.0, 0.0, 0.0, 0.0, 0.0, 0.0, 1.657492770892824E9, 0.0, 2022-07-10 18:39:30.892
71.0, 34097.83203575993, 32398.160683889473, -12563.557930416815, -38050.46982174752, 11945.08516133847, 28824.876704797352, -11739.292650138457, 21688.52349382919, 0.05, 0.9460000000000001, 0.212, 192.0, 0.0, 0.0, 0.0, 0.0, 0.0, 0.0, 0.0, 0.0, 0.0, 1.657492770892846E9, 0.0, 2022-07-10 18:39:30.892
72.0, 35745.781450960814, 32547.559743828744, -12588.994215606954, -37383.11378754542, 11724.965181942605, 32294.850921017045, -11945.465140994209, 22950.905317176024, 0.05, 0.9460000000000001, 0.212, 192.0, 0.0, 0.0, 0.0, 0.0, 0.0, 0.0, 0.0, 0.0, 0.0, 1.657492770900824E9, 0.0, 2022-07-10 18:39:30.900
73.0, 37140.619711949796, 32589.916299571552, -12812.444604926659, -37743.80388782071, 11536.070589550805, 36003.944099419605, -12132.683352551861, 23021.760347099345, 0.05, 0.9460000000000001, 0.212, 192.0, 0.0, 0.0, 0.0, 0.0, 0.0, 0.0, 0.0, 0.0, 0.0, 1.657492770900872E9, 0.0, 2022-07-10 18:39:30.900
74.0, 35696.76407537032, 32452.922457804976, -12802.542782132958, -38398.151206749826, 11734.46467333611, 33037.912313689274, -11948.147350328845, 21827.998379230306, 0.05, 0.9460000000000001, 0.212, 192.0, 0.0, 0.0, 0.0, 0.0, 0.0, 0.0, 0.0, 0.0, 0.0, 1.657492770907994E9, 0.0, 2022-07-10 18:39:30.907
75.0, 34113.880588278844, 32397.579538533635, -12588.278959784384, -38159.76985213398, 11955.881053910382, 28951.901668536862, -11728.362647099812, 21573.970803495744, 0.05, 0.9460000000000001, 0.212, 192.0, 0.0, 0.0, 0.0, 0.0, 0.0, 0.0, 0.0, 0.0, 0.0, 1.657492770908014E9, 0.0, 2022-07-10 18:39:30.908
76.0, 35329.72607966972, 32533.54520005527, -12546.570604630782, -37432.064107902544, 11805.09618581488, 31314.928092351925, -11868.82100925696, 22763.776512596192, 0.05, 0.9460000000000001, 0.212, 192.0, 0.0, 0.0, 0.0, 0.0, 0.0, 0.0, 0.0, 0.0, 0.0, 1.657492770915944E9, 0.0, 2022-07-10 18:39:30.915
77.0, 37083.64511533322, 32604.86961661215, -12775.363060875305, -37597.69053431637, 11552.275604280901, 35756.15266038808, -12126.87189899348, 23163.626869157182, 0.044, 0.97, 0.20800000000000002, 192.0, 1.0, 96.0, 30.0, 80.0, 6.0, 128.0, 0.0, 0.0, 0.0, 1.657492770916003E9, 0.0, 2022-07-10 18:39:30.916
78.0, 36065.92548679418, 32482.471463974893, -12831.510642947036, -38329.7995722055, 11683.16741981118, 33886.09396053481, -12012.207449937756, 22019.172849556548, 0.044, 0.97, 0.20800000000000002, 192.0, 0.0, 0.0, 0.0, 0.0, 0.0, 0.0, 0.0, 0.0, 0.0, 1.657492770922454E9, 0.0, 2022-07-10 18:39:30.922
79.0, 34204.405153322834, 32399.07710541214, -12617.8279659543, -38277.67530413572, 11948.214405562212, 29254.991323350827, -11748.434513620678, 21460.669810851792, 0.044, 0.97, 0.20800000000000002, 192.0, 0.0, 0.0, 0.0, 0.0, 0.0, 0.0, 0.0, 0.0, 0.0, 1.657492770930743E9, 0.0, 2022-07-10 18:39:30.930
80.0, 34931.50740045398, 32500.4199147725, -12530.946735256523, -37530.38943176144, 11854.180616638734, 30403.49100869787, -11822.91052614576, 22511.73824211815, 0.044, 0.97, 0.20800000000000002, 192.0, 0.0, 0.0, 0.0, 0.0, 0.0, 0.0, 0.0, 0.0, 0.0, 1.657492770930821E9, 0.0, 2022-07-10 18:39:30.930
81.0, 36917.4151918191, 32599.08051479823, -12744.607060504803, -37506.160140771884, 11572.414526035134, 35264.41428237132, -12104.028416160158, 23215.326454082307, 0.044, 0.97, 0.20800000000000002, 192.0, 0.0, 0.0, 0.0, 0.0, 0.0, 0.0, 0.0, 0.0, 0.0, 1.657492770937502E9, 0.0, 2022-07-10 18:39:30.937
82.0, 36389.846967440484, 32505.650222975044, -12848.028582099509, -38241.130201951295, 11637.793378566907, 34614.649071055544, -12049.803084111581, 22252.97209655906, 0.044, 0.97, 0.20800000000000002, 192.0, 0.0, 0.0, 0.0, 0.0, 0.0, 0.0, 0.0, 0.0, 0.0, 1.657492770937522E9, 0.0, 2022-07-10 18:39:30.937
83.0, 34390.237556724256, 32399.725306001343, -12661.12329496423, -38367.506965101595, 11921.146443026835, 29792.17079784522, -11771.725031343107, 21446.923488011776, 0.044, 0.97, 0.20800000000000002, 192.0, 0.0, 0.0, 0.0, 0.0, 0.0, 0.0, 0.0, 0.0, 0.0, 1.657492770945096E9, 0.0, 2022-07-10 18:39:30.945
84.0, 34575.354704303114, 32472.457882458915, -12528.71156081099, -37657.32498852313, 11903.779137585061, 29638.77077564845, -11793.875610098316, 22281.224701550567, 0.044, 0.97, 0.20800000000000002, 192.0, 0.0, 0.0, 0.0, 0.0, 0.0, 0.0, 0.0, 0.0, 0.0, 1.657492770945142E9, 0.0, 2022-07-10 18:39:30.945
85.0, 36660.5042410498, 32592.10677052817, -12707.65962692018, -37428.13020087841, 11605.651570040176, 34579.914460171996, -12081.766078682671, 23227.351692599263, 0.044, 0.97, 0.20800000000000002, 192.0, 0.0, 0.0, 0.0, 0.0, 0.0, 0.0, 0.0, 0.0, 0.0, 1.657492770953118E9, 0.0, 2022-07-10 18:39:30.953
86.0, 36666.561563797186, 32524.649205762056, -12866.759343953056, -38131.60665412029, 11591.279398355413, 35204.623365953375, -12104.16252662689, 22461.06683743797, 0.044, 0.97, 0.20800000000000002, 192.0, 0.0, 0.0, 0.0, 0.0, 0.0, 0.0, 0.0, 0.0, 0.0, 1.65749277095314E9, 0.0, 2022-07-10 18:39:30.953
87.0, 34657.18444075399, 32401.669907768955, -12715.214516546073, -38435.27745429009, 11874.274834904056, 30505.504370391893, -11840.43429379872, 21455.573613115983, 0.026000000000000002, 0.974, 0.212, 192.0, 0.0, 208.0, 30.0, 112.0, 6.0, 160.0, 0.0, 0.0, 0.0, 1.657492770961091E9, 0.0, 2022-07-10 18:39:30.961
88.0, 34308.60898597348, 32444.361739678592, -12537.361685915195, -37807.43930428497, 11936.055056578525, 29092.158864993915, -11772.261473210034, 22020.133974568125, 0.026000000000000002, 0.974, 0.212, 192.0, 0.0, 0.0, 0.0, 0.0, 0.0, 0.0, 0.0, 0.0, 0.0, 1.657492770961113E9, 0.0, 2022-07-10 18:39:30.961
89.0, 36345.05407155205, 32577.30991569876, -12666.800638055878, -37385.416017224314, 11649.148064750203, 33746.931999556065, -12032.480482158719, 23152.07101727379, 0.026000000000000002, 0.974, 0.212, 192.0, 0.0, 0.0, 0.0, 0.0, 0.0, 0.0, 0.0, 0.0, 0.0, 1.657492770967711E9, 0.0, 2022-07-10 18:39:30.967
90.0, 36899.39968578812, 32545.793956016776, -12863.920672407232, -38000.13369323417, 11560.970432874017, 35635.20737114041, -12118.53469831165, 22652.084845553025, 0.026000000000000002, 0.974, 0.212, 192.0, 0.0, 0.0, 0.0, 0.0, 0.0, 0.0, 0.0, 0.0, 0.0, 1.657492770967805E9, 0.0, 2022-07-10 18:39:30.967
91.0, 35020.28852943046, 32409.694184028413, -12764.880092725765, -38459.730262724195, 11822.597601723386, 31383.011505962793, -11860.863788230872, 21506.15561081834, 0.026000000000000002, 0.974, 0.212, 192.0, 0.0, 0.0, 0.0, 0.0, 0.0, 0.0, 0.0, 0.0, 0.0, 1.65749277097572E9, 0.0, 2022-07-10 18:39:30.975
92.0, 34163.21088829171, 32411.88465498503, -12561.926253071577, -37958.201820636015, 11950.024896863091, 28820.98750126213, -11726.03806567646, 21800.863361461565, 0.026000000000000002, 0.974, 0.212, 192.0, 0.0, 0.0, 0.0, 0.0, 0.0, 0.0, 0.0, 0.0, 0.0, 1.657492770975739E9, 0.0, 2022-07-10 18:39:30.975
93.0, 35975.73619791701, 32549.034958962795, -12623.326495090307, -37386.51125270263, 11709.855402690817, 32821.27920642844, -11955.277556810088, 23049.70002766848, 0.026000000000000002, 0.974, 0.212, 192.0, 0.0, 0.0, 0.0, 0.0, 0.0, 0.0, 0.0, 0.0, 0.0, 1.65749277098293E9, 0.0, 2022-07-10 18:39:30.982
94.0, 37034.560684509364, 32559.02618873432, -12842.06066632994, -37856.72490080892, 11555.829531649297, 35843.458574230506, -12119.741692512238, 22893.886017070534, 0.026000000000000002, 0.974, 0.212, 192.0, 0.0, 0.0, 0.0, 0.0, 0.0, 0.0, 0.0, 0.0, 0.0, 1.657492770989905E9, 0.0, 2022-07-10 18:39:30.989
95.0, 35400.46935087077, 32426.301530158704, -12795.122002973796, -38445.49220150617, 11779.816362835929, 32301.981127498286, -11910.685826621751, 21686.556540317124, 0.026000000000000002, 0.974, 0.212, 192.0, 0.0, 0.0, 0.0, 0.0, 0.0, 0.0, 0.0, 0.0, 0.0, 1.657492770989953E9, 0.0, 2022-07-10 18:39:30.989
96.0, 34104.82813177444, 32391.343401830603, -12583.674500426592, -38104.0469532069, 11959.390277789866, 28783.280108366027, -11727.490929066054, 21629.827812889554, 0.026000000000000002, 0.974, 0.212, 192.0, 0.0, 0.0, 0.0, 0.0, 0.0, 0.0, 0.0, 0.0, 0.0, 1.657492770997337E9, 0.0, 2022-07-10 18:39:30.997
97.0, 35584.82653913814, 32523.509266794834, -12594.135116831674, -37425.44799154377, 11758.313984669923, 31880.024895671, -11920.095911037435, 22852.557641572672, 0.012, 0.974, 0.218, 192.0, 0.0, 96.0, 30.0, 112.0, 6.0, 208.0, 0.0, 0.0, 0.0, 1.657492770997382E9, 0.0, 2022-07-10 18:39:30.997
98.0, 37060.80163249989, 32567.20692720496, -12824.58160216589, -37721.474495109855, 11546.374743744702, 35782.30420140078, -12143.143968956945, 23020.12866975411, 0.012, 0.974, 0.218, 192.0, 0.0, 0.0, 0.0, 0.0, 0.0, 0.0, 0.0, 0.0, 0.0, 1.657492771005484E9, 0.0, 2022-07-10 18:39:31.005
99.0, 35779.30906764377, 32439.489059387335, -12834.483424959592, -38399.3134974615, 11726.418045332199, 33176.47077756772, -11973.091897140968, 21844.873946294065, 0.012, 0.974, 0.218, 192.0, 0.0, 0.0, 0.0, 0.0, 0.0, 0.0, 0.0, 0.0, 0.0, 1.657492771005503E9, 0.0, 2022-07-10 18:39:31.005
100.0, 34147.810536362, 32377.954706901874, -12620.487823544481, -38222.578254053384, 11959.256167323134, 28960.887069807897, -11730.776635500984, 21499.427735737292, 0.012, 0.974, 0.218, 192.0, 0.0, 0.0, 0.0, 0.0, 0.0, 0.0, 0.0, 0.0, 0.0, 1.657492771013435E9, 0.0, 2022-07-10 18:39:31.013
101.0, 35199.661278684296, 32492.887376891063, -12572.29746249884, -37491.85502432049, 11819.066026099448, 30958.328361311957, -11855.25350037259, 22642.942982070803, 0.012, 0.974, 0.218, 192.0, 0.0, 0.0, 0.0, 0.0, 0.0, 0.0, 0.0, 0.0, 0.0, 1.657492771013482E9, 0.0, 2022-07-10 18:39:31.013
102.0, 36994.640468912185, 32570.44793015098, -12793.132697717274, -37596.572947093606, 11559.316403784323, 35497.20770087334, -12115.226640132267, 23127.77467105087, 0.012, 0.974, 0.218, 192.0, 0.0, 0.0, 0.0, 0.0, 0.0, 0.0, 0.0, 0.0, 0.0, 1.657492771020001E9, 0.0, 2022-07-10 18:39:31.020
103.0, 36166.53068858751, 32462.086673031652, -12870.626195743824, -38319.96480464516, 11657.820541598861, 34046.26656130154, -12027.47369140073, 22057.237870363937, 0.012, 0.974, 0.218, 192.0, 0.0, 0.0, 0.0, 0.0, 0.0, 0.0, 0.0, 0.0, 0.0, 1.657492771020047E9, 0.0, 2022-07-10 18:39:31.020
104.0, 34302.909291137374, 32370.26570680925, -12674.17671372613, -38330.82775245044, 11919.872393592883, 29412.90639792757, -11770.80860982044, 21426.829269746457, 0.012, 0.974, 0.218, 192.0, 0.0, 0.0, 0.0, 0.0, 0.0, 0.0, 0.0, 0.0, 0.0, 1.657492771027842E9, 0.0, 2022-07-10 18:39:31.027
105.0, 34831.19277133856, 32466.75818762281, -12558.148808258631, -37600.70801981784, 11876.3535471384, 30116.71812733628, -11807.286656771501, 22404.87455187733, 0.012, 0.974, 0.218, 192.0, 0.0, 0.0, 0.0, 0.0, 0.0, 0.0, 0.0, 0.0, 0.0, 1.657492771027905E9, 0.0, 2022-07-10 18:39:31.027
106.0, 36814.127780691124, 32575.54412788679, -12748.004525662009, -37488.211689974276, 11591.189991377592, 34968.49953752751, -12078.100392592001, 23195.79102942837, 0.012, 0.974, 0.218, 192.0, 0.0, 0.0, 0.0, 0.0, 0.0, 0.0, 0.0, 0.0, 0.0, 1.657492771036127E9, 0.0, 2022-07-10 18:39:31.036
107.0, 36502.767980428696, 32491.81449315721, -12880.55037028198, -38204.02630615548, 11616.670980056642, 34799.1627215341, -12061.314232506065, 22306.884504185262, 0.008, 0.966, 0.224, 192.0, 0.0, 64.0, 30.0, 48.0, 7.0, 0.0, 0.0, 0.0, 0.0, 1.657492771036194E9, 0.0, 2022-07-10 18:39:31.036
108.0, 34540.53068644174, 32383.69910522689, -12702.809298373379, -38395.17842473727, 11902.281570706555, 30055.362588806463, -11778.430554679699, 21432.43955760474, 0.008, 0.966, 0.224, 192.0, 0.0, 0.0, 0.0, 0.0, 0.0, 0.0, 0.0, 0.0, 0.0, 1.657492771042963E9, 0.0, 2022-07-10 18:39:31.042
109.0, 34536.64148290652, 32441.724233832865, -12549.431627921062, -37717.629995063544, 11917.12312902488, 29470.3056776888, -11754.313022412423, 22176.35031656627, 0.008, 0.966, 0.224, 192.0, 0.0, 0.0, 0.0, 0.0, 0.0, 0.0, 0.0, 0.0, 0.0, 1.657492771049837E9, 0.0, 2022-07-10 18:39:31.049
110.0, 36558.267361911225, 32559.942610256985, -12709.671283921158, -37417.64723272887, 11625.499919116488, 34279.77523562613, -12040.504758418174, 23182.737610666467, 0.008, 0.966, 0.224, 192.0, 0.0, 0.0, 0.0, 0.0, 0.0, 0.0, 0.0, 0.0, 0.0, 1.657492771049927E9, 0.0, 2022-07-10 18:39:31.049
111.0, 36747.452526980946, 32506.790161942266, -12878.44930630318, -38078.5883162723, 11586.898456442173, 35313.543416684086, -12083.509514750185, 22519.3154834885, 0.008, 0.966, 0.224, 192.0, 0.0, 0.0, 0.0, 0.0, 0.0, 0.0, 0.0, 0.0, 0.0, 1.65749277105746E9, 0.0, 2022-07-10 18:39:31.057
112.0, 34826.14127709166, 32386.247204094794, -12743.310659326395, -38426.89555011935, 11866.58583481143, 30792.925452342686, -11817.747273176585, 21482.485113440172, 0.008, 0.966, 0.224, 192.0, 0.0, 0.0, 0.0, 0.0, 0.0, 0.0, 0.0, 0.0, 0.0, 1.657492771057489E9, 0.0, 2022-07-10 18:39:31.057
113.0, 34304.07158184905, 32411.862303240578, -12555.19837799053, -37847.40422337106, 11945.420437505298, 28997.052192336585, -11727.066245921404, 21943.691008530976, 0.008, 0.966, 0.224, 192.0, 0.0, 0.0, 0.0, 0.0, 0.0, 0.0, 0.0, 0.0, 0.0, 1.657492771065633E9, 0.0, 2022-07-10 18:39:31.065
114.0, 36234.5023434761, 32539.624874547113, -12667.448838645083, -37384.43254046828, 11666.560073680886, 33444.82582149814, -11990.883885727393, 23107.56869406327, 0.008, 0.966, 0.224, 192.0, 0.0, 0.0, 0.0, 0.0, 0.0, 0.0, 0.0, 0.0, 0.0, 1.657492771065662E9, 0.0, 2022-07-10 18:39:31.065
115.0, 36948.23824742297, 32525.878551707097, -12868.078096875919, -37944.58960826274, 11554.801351404352, 35684.314153708714, -12104.766023727183, 22734.696893059838, 0.008, 0.966, 0.224, 192.0, 0.0, 0.0, 0.0, 0.0, 0.0, 0.0, 0.0, 0.0, 0.0, 1.657492771072965E9, 0.0, 2022-07-10 18:39:31.072
116.0, 35183.12098778737, 32394.919680943454, -12788.237665681561, -38442.69823344925, 11797.451889211165, 31671.237250713977, -11875.303015149, 21575.825998285534, 0.008, 0.966, 0.224, 192.0, 0.0, 0.0, 0.0, 0.0, 0.0, 0.0, 0.0, 0.0, 0.0, 1.657492771073008E9, 0.0, 2022-07-10 18:39:31.073
117.0, 34185.76379844711, 32392.528044286737, -12579.24885502444, -37994.59046060925, 11948.102646839936, 28786.096428167395, -11719.332542339867, 21731.662360627935, 0.004, 0.9460000000000001, 0.224, 192.0, 0.0, 32.0, 29.0, 144.0, 7.0, 0.0, 0.0, 0.0, 0.0, 1.657492771080616E9, 0.0, 2022-07-10 18:39:31.080
118.0, 35874.39338855665, 32529.365423842126, -12625.896945702667, -37390.8251393825, 11714.213992859603, 32518.278958592295, -11939.094893824446, 22963.846977215646, 0.004, 0.9460000000000001, 0.224, 192.0, 0.0, 0.0, 0.0, 0.0, 0.0, 0.0, 0.0, 0.0, 0.0, 1.657492771080684E9, 0.0, 2022-07-10 18:39:31.080
119.0, 37058.499402821, 32548.856145007154, -12850.576680967413, -37802.34310654916, 11533.298973238347, 35826.33713797774, -12131.141082184444, 22909.621645167073, 0.004, 0.9460000000000001, 0.224, 192.0, 0.0, 0.0, 0.0, 0.0, 0.0, 0.0, 0.0, 0.0, 0.0, 1.657492771088187E9, 0.0, 2022-07-10 18:39:31.088
120.0, 35560.48548942632, 32424.04400396872, -12821.050026541952, -38418.22307327069, 11736.208109403624, 32575.87940405362, -11929.863623364405, 21713.088060985574, 0.004, 0.9460000000000001, 0.224, 192.0, 0.0, 0.0, 0.0, 0.0, 0.0, 0.0, 0.0, 0.0, 0.0, 1.657492771088253E9, 0.0, 2022-07-10 18:39:31.088
121.0, 34169.044693594544, 32385.420189549946, -12605.199230337052, -38123.71648832756, 11928.634277419362, 28822.976806518654, -11726.574507543386, 21566.326506892026, 0.004, 0.9460000000000001, 0.224, 192.0, 0.0, 0.0, 0.0, 0.0, 0.0, 0.0, 0.0, 0.0, 0.0, 1.657492771095843E9, 0.0, 2022-07-10 18:39:31.095
122.0, 35500.22518637481, 32510.187627099473, -12592.72695693099, -37431.17003812433, 11756.592900346865, 31589.04988635181, -11883.662567575284, 22776.807579613636, 0.004, 0.9460000000000001, 0.224, 192.0, 0.0, 0.0, 0.0, 0.0, 0.0, 0.0, 0.0, 0.0, 0.0, 1.657492771095946E9, 0.0, 2022-07-10 18:39:31.095
123.0, 37075.307914651385, 32565.619953348632, -12821.832337597889, -37666.86918340554, 11528.85097609174, 35734.82909617771, -12111.359788341499, 23053.633934692614, 0.004, 0.9460000000000001, 0.224, 192.0, 0.0, 0.0, 0.0, 0.0, 0.0, 0.0, 0.0, 0.0, 0.0, 1.657492771101984E9, 0.0, 2022-07-10 18:39:31.101
124.0, 35947.57299990332, 32454.554135150214, -12850.77784666751, -38356.3534446184, 11686.07314659037, 33483.360228939084, -11969.068583139013, 21901.24504581035, 0.004, 0.9460000000000001, 0.224, 192.0, 0.0, 0.0, 0.0, 0.0, 0.0, 0.0, 0.0, 0.0, 0.0, 1.65749277110204E9, 0.0, 2022-07-10 18:39:31.102
125.0, 34238.64802582837, 32377.17239584594, -12649.835664014301, -38242.67247231871, 11914.619733645884, 29105.61461515601, -11735.023466947492, 21455.081874737964, 0.004, 0.9460000000000001, 0.224, 192.0, 0.0, 0.0, 0.0, 0.0, 0.0, 0.0, 0.0, 0.0, 0.0, 1.657492771110767E9, 0.0, 2022-07-10 18:39:31.110
126.0, 35110.589577029896, 32482.225594785883, -12583.272169026395, -37522.05223107961, 11796.513115944043, 30706.334794322825, -11838.892023431305, 22543.58947796696, 0.004, 0.9460000000000001, 0.224, 192.0, 0.0, 0.0, 0.0, 0.0, 0.0, 0.0, 0.0, 0.0, 0.0, 1.657492771117782E9, 0.0, 2022-07-10 18:39:31.117
127.0, 36970.478233156, 32569.665619095045, -12789.779936048977, -37555.2669233402, 11530.125025525693, 35397.92125200287, -12104.028416160158, 23131.61917109718, 0.022, 0.9400000000000001, 0.212, 192.0, 0.0, 176.0, 29.0, 96.0, 6.0, 160.0, 0.0, 0.0, 0.0, 1.657492771117808E9, 0.0, 2022-07-10 18:39:31.117
128.0, 36291.5663470705, 32465.260620744306, -12877.421126058236, -38278.09998728037, 11610.97128522054, 34302.93164288183, -12031.586412380508, 22097.649824339132, 0.022, 0.9400000000000001, 0.212, 192.0, 0.0, 0.0, 0.0, 0.0, 0.0, 0.0, 0.0, 0.0, 0.0, 1.657492771125027E9, 0.0, 2022-07-10 18:39:31.125
129.0, 34392.36097244752, 32370.332762042617, -12686.760745854468, -38347.90448521429, 11880.242750673622, 29591.3850774032, -11769.892188297772, 21380.963490124166, 0.022, 0.9400000000000001, 0.212, 192.0, 0.0, 0.0, 0.0, 0.0, 0.0, 0.0, 0.0, 0.0, 0.0, 1.657492771125065E9, 0.0, 2022-07-10 18:39:31.125
130.0, 34755.107433212695, 32460.969085808887, -12557.67942162507, -37624.55733115165, 11846.938651435215, 29908.645738201827, -11795.61904616583, 22288.55607373191, 0.022, 0.9400000000000001, 0.212, 192.0, 0.0, 0.0, 0.0, 0.0, 0.0, 0.0, 0.0, 0.0, 0.0, 1.657492771132596E9, 0.0, 2022-07-10 18:39:31.132
131.0, 36775.77218720582, 32569.576212117223, -12753.704220498112, -37466.12816645243, 11547.67114492311, 34833.65146322864, -12090.77383169816, 23146.326618948773, 0.022, 0.9400000000000001, 0.212, 192.0, 0.0, 0.0, 0.0, 0.0, 0.0, 0.0, 0.0, 0.0, 0.0, 1.657492771132614E9, 0.0, 2022-07-10 18:39:31.132
132.0, 36610.43633346991, 32497.111856593117, -12883.344338338893, -38175.684294186154, 11563.652642208654, 34992.28179362795, -12084.045956617112, 22300.357794804313, 0.022, 0.9400000000000001, 0.212, 192.0, 0.0, 0.0, 0.0, 0.0, 0.0, 0.0, 0.0, 0.0, 0.0, 1.657492771140714E9, 0.0, 2022-07-10 18:39:31.140
133.0, 34645.74034759287, 32381.50863427027, -12720.645990448713, -38414.22211101319, 11843.272965344546, 30274.297925746196, -11800.424671223722, 21379.287109290017, 0.022, 0.9400000000000001, 0.212, 192.0, 0.0, 0.0, 0.0, 0.0, 0.0, 0.0, 0.0, 0.0, 0.0, 1.65749277114075E9, 0.0, 2022-07-10 18:39:31.140
134.0, 34477.565822311146, 32435.04106224073, -12555.086619268253, -37762.64640839653, 11875.39242212682, 29319.94549273795, -11752.56958634491, 22047.671323737064, 0.022, 0.9400000000000001, 0.212, 192.0, 0.0, 0.0, 0.0, 0.0, 0.0, 0.0, 0.0, 0.0, 0.0, 1.657492771148584E9, 0.0, 2022-07-10 18:39:31.148
135.0, 36510.83696017706, 32567.29633418278, -12698.18248727113, -37407.521892490615, 11587.278436097913, 34098.27907064904, -12030.692342602295, 23121.04679596982, 0.022, 0.9400000000000001, 0.212, 192.0, 0.0, 0.0, 0.0, 0.0, 0.0, 0.0, 0.0, 0.0, 0.0, 1.657492771148605E9, 0.0, 2022-07-10 18:39:31.148
136.0, 36869.82832787375, 32526.43734531848, -12882.472620305136, -38049.57575196931, 11525.632324890175, 35509.94819521287, -12107.001198172713, 22534.715835418207, 0.022, 0.9400000000000001, 0.212, 192.0, 0.0, 0.0, 0.0, 0.0, 0.0, 0.0, 0.0, 0.0, 0.0, 1.657492771155186E9, 0.0, 2022-07-10 18:39:31.155
137.0, 34954.7979181764, 32398.719477500854, -12759.649784523224, -38452.35418705394, 11796.826040366417, 31059.782929394598, -11849.173825880745, 21444.62125833288, 0.042, 0.9480000000000001, 0.20400000000000001, 192.0, 1.0, 80.0, 29.0, 160.0, 6.0, 96.0, 0.0, 0.0, 0.0, 1.657492771155209E9, 0.0, 2022-07-10 18:39:31.155
138.0, 34272.2874012336, 32416.265596898273, -12563.624985650182, -37905.921090355056, 11899.934637538749, 28909.94744419425, -11734.308211124922, 21818.565943070167, 0.042, 0.9480000000000001, 0.20400000000000001, 192.0, 0.0, 0.0, 0.0, 0.0, 0.0, 0.0, 0.0, 0.0, 0.0, 1.657492771164527E9, 0.0, 2022-07-10 18:39:31.164
139.0, 36158.19348790568, 32554.48878460989, -12653.568405338336, -37386.08656955798, 11635.91583203266, 33189.47949284071, -11984.379528090898, 23011.70206209446, 0.042, 0.9480000000000001, 0.20400000000000001, 192.0, 0.0, 0.0, 0.0, 0.0, 0.0, 0.0, 0.0, 0.0, 0.0, 1.657492771164578E9, 0.0, 2022-07-10 18:39:31.164
140.0, 37038.271074088945, 32548.140889184582, -12865.64175673029, -37907.239843277915, 11500.687778078054, 35791.60252709419, -12124.30144838112, 22730.40535812442, 0.042, 0.9480000000000001, 0.20400000000000001, 192.0, 0.0, 0.0, 0.0, 0.0, 0.0, 0.0, 0.0, 0.0, 0.0, 1.657492771170869E9, 0.0, 2022-07-10 18:39:31.170
141.0, 35321.12065805443, 32412.734021274333, -12799.34648267585, -38455.19285859977, 11735.269336136502, 31950.499945938584, -11897.744166582128, 21543.706541503256, 0.042, 0.9480000000000001, 0.20400000000000001, 192.0, 0.0, 0.0, 0.0, 0.0, 0.0, 0.0, 0.0, 0.0, 0.0, 1.657492771178166E9, 0.0, 2022-07-10 18:39:31.178
142.0, 34156.19244053274, 32397.356021089083, -12577.326605001284, -38052.0344438594, 11916.78785285805, 28726.752546638556, -11715.309228337912, 21599.295329963606, 0.042, 0.9480000000000001, 0.20400000000000001, 192.0, 0.0, 0.0, 0.0, 0.0, 0.0, 0.0, 0.0, 0.0, 0.0, 1.657492771178185E9, 0.0, 2022-07-10 18:39:31.178
143.0, 35757.04673016629, 32536.6297407901, -12607.479108271493, -37402.44804649926, 11698.143088596236, 32197.26320472517, -11919.850041848427, 22845.069807180145, 0.042, 0.9480000000000001, 0.20400000000000001, 192.0, 0.0, 0.0, 0.0, 0.0, 0.0, 0.0, 0.0, 0.0, 0.0, 1.65749277118513E9, 0.0, 2022-07-10 18:39:31.185
144.0, 37104.67810686566, 32571.744331329388, -12834.639887170779, -37765.90976308701, 11498.65376933262, 35829.242864756925, -12128.704742038815, 22901.44090669643, 0.042, 0.9480000000000001, 0.20400000000000001, 192.0, 0.0, 0.0, 0.0, 0.0, 0.0, 0.0, 0.0, 0.0, 0.0, 1.657492771185164E9, 0.0, 2022-07-10 18:39:31.185
145.0, 35699.848616105155, 32445.166402478982, -12824.648657399257, -38418.08896280396, 11690.945826881627, 32854.15862252219, -11956.641013221863, 21702.53803760267, 0.042, 0.9480000000000001, 0.20400000000000001, 192.0, 0.0, 0.0, 0.0, 0.0, 0.0, 0.0, 0.0, 0.0, 0.0, 1.657492771193415E9, 0.0, 2022-07-10 18:39:31.193
146.0, 34150.89507709683, 32394.78557047672, -12606.92031466011, -38178.54531747643, 11908.361245198399, 28811.018623235064, -11734.039990191459, 21446.699970567224, 0.042, 0.9480000000000001, 0.20400000000000001, 192.0, 0.0, 0.0, 0.0, 0.0, 0.0, 0.0, 0.0, 0.0, 0.0, 1.657492771193502E9, 0.0, 2022-07-10 18:39:31.193
147.0, 35360.54913527359, 32522.39167957207, -12572.856256110223, -37454.39350061339, 11750.84850202185, 31240.04974842665, -11871.212645913678, 22638.42792969083, 0.042, 0.9540000000000001, 0.20400000000000001, 192.0, 1.0, 80.0, 29.0, 208.0, 6.0, 96.0, 0.0, 0.0, 0.0, 1.657492771200727E9, 0.0, 2022-07-10 18:39:31.200
148.0, 37073.0503884614, 32587.010572792362, -12800.084090242874, -37632.626310900014, 11504.845202546741, 35619.62820525506, -12121.887459979947, 23012.573780128216, 0.042, 0.9540000000000001, 0.20400000000000001, 192.0, 0.0, 0.0, 0.0, 0.0, 0.0, 0.0, 0.0, 0.0, 0.0, 1.657492771200746E9, 0.0, 2022-07-10 18:39:31.200
149.0, 36061.969228025584, 32469.79802486873, -12852.297765290472, -38347.41274683628, 11640.810864068373, 33683.76596972537, -12009.033502225102, 21875.18291177546, 0.042, 0.9540000000000001, 0.20400000000000001, 192.0, 0.0, 0.0, 0.0, 0.0, 0.0, 0.0, 0.0, 0.0, 0.0, 1.65749277120742E9, 0.0, 2022-07-10 18:39:31.207
150.0, 34245.13003172041, 32388.527082029235, -12646.192329668085, -38283.17383327172, 11899.867582305382, 29124.926522365397, -11754.693002068163, 21343.323152461428, 0.042, 0.9540000000000001, 0.20400000000000001, 192.0, 0.0, 0.0, 0.0, 0.0, 0.0, 0.0, 0.0, 0.0, 0.0, 1.65749277120745E9, 0.0, 2022-07-10 18:39:31.207
151.0, 34975.42857830865, 32488.34997276664, -12565.413125206605, -37550.39424304894, 11799.463546212142, 30356.932324997466, -11837.729732719628, 22390.770601126027, 0.042, 0.9540000000000001, 0.20400000000000001, 192.0, 0.0, 0.0, 0.0, 0.0, 0.0, 0.0, 0.0, 0.0, 0.0, 1.657492771215217E9, 0.0, 2022-07-10 18:39:31.215
152.0, 36941.33155838628, 32589.692782127, -12777.978214976576, -37527.61781544898, 11519.932630054072, 35189.20066227921, -12126.424864104374, 23055.84675739369, 0.042, 0.9540000000000001, 0.20400000000000001, 192.0, 0.0, 0.0, 0.0, 0.0, 0.0, 0.0, 0.0, 0.0, 0.0, 1.657492771215288E9, 0.0, 2022-07-10 18:39:31.215
153.0, 36416.02086019765, 32499.123513594095, -12879.768059226044, -38255.52472538051, 11593.156944889659, 34466.03232217221, -12057.38032548193, 22084.484646854955, 0.042, 0.9540000000000001, 0.20400000000000001, 192.0, 0.0, 0.0, 0.0, 0.0, 0.0, 0.0, 0.0, 0.0, 0.0, 1.657492771225088E9, 0.0, 2022-07-10 18:39:31.225
154.0, 34432.70587118934, 32387.65536399548, -12698.56246692687, -38377.67700882876, 11863.210721398678, 29668.319781818365, -11778.877589568805, 21305.101669442854, 0.042, 0.9540000000000001, 0.20400000000000001, 192.0, 0.0, 0.0, 0.0, 0.0, 0.0, 0.0, 0.0, 0.0, 0.0, 1.657492771225131E9, 0.0, 2022-07-10 18:39:31.225
155.0, 34625.400260138544, 32465.595896911134, -12557.925290814077, -37671.853622419076, 11851.811331726472, 29591.116856469736, -11779.279920969, 22142.66623767212, 0.042, 0.9540000000000001, 0.20400000000000001, 192.0, 0.0, 0.0, 0.0, 0.0, 0.0, 0.0, 0.0, 0.0, 0.0, 1.657492771231003E9, 0.0, 2022-07-10 18:39:31.231
156.0, 36693.69658156593, 32589.156340260073, -12727.798548674411, -37445.9892446982, 11569.933482400595, 34507.42775290344, -12063.459999973775, 23065.636821465116, 0.042, 0.9540000000000001, 0.20400000000000001, 192.0, 0.0, 0.0, 0.0, 0.0, 0.0, 0.0, 0.0, 0.0, 0.0, 1.657492771237135E9, 0.0, 2022-07-10 18:39:31.237
157.0, 36696.80347404521, 32523.10693539464, -12878.963396425654, -38130.57847387534, 11562.24448230797, 35054.71021589163, -12080.603787970995, 22318.909742702217, 0.034, 0.966, 0.19, 192.0, 1.0, 16.0, 30.0, 48.0, 5.0, 240.0, 0.0, 0.0, 0.0, 1.657492771237163E9, 0.0, 2022-07-10 18:39:31.237
158.0, 34710.76157221336, 32398.674774011946, -12727.28445855194, -38418.53599769306, 11840.099017631892, 30379.932270041976, -11810.259438784056, 21343.859594328358, 0.034, 0.966, 0.19, 192.0, 0.0, 0.0, 0.0, 0.0, 0.0, 0.0, 0.0, 0.0, 0.0, 1.657492771245078E9, 0.0, 2022-07-10 18:39:31.245
159.0, 34353.826565006566, 32441.165440221484, -12547.084694753254, -37796.218728568405, 11905.634332374852, 29017.772259446654, -11734.911708225216, 21903.99431037835, 0.034, 0.966, 0.19, 192.0, 0.0, 0.0, 0.0, 0.0, 0.0, 0.0, 0.0, 0.0, 0.0, 1.657492771245114E9, 0.0, 2022-07-10 18:39:31.245
160.0, 36373.01610386564, 32575.29825869778, -12679.27291146194, -37385.61718292441, 11621.096625458793, 33680.01087665688, -12010.352255147965, 23026.163640757044, 0.034, 0.966, 0.19, 192.0, 0.0, 0.0, 0.0, 0.0, 0.0, 0.0, 0.0, 0.0, 0.0, 1.65749277125327E9, 0.0, 2022-07-10 18:39:31.253
161.0, 36925.66298552311, 32543.089394937684, -12876.974091169131, -37987.840233783754, 11534.640077905666, 35512.496294080775, -12107.269419106176, 22545.735245434673, 0.034, 0.966, 0.19, 192.0, 0.0, 0.0, 0.0, 0.0, 0.0, 0.0, 0.0, 0.0, 0.0, 1.657492771253312E9, 0.0, 2022-07-10 18:39:31.253
162.0, 35038.862829072816, 32408.84481773911, -12770.937415473154, -38437.19970431324, 11800.737595646096, 31220.2684545837, -11857.935709707226, 21412.27828410605, 0.034, 0.966, 0.19, 192.0, 0.0, 0.0, 0.0, 0.0, 0.0, 0.0, 0.0, 0.0, 0.0, 1.657492771263112E9, 0.0, 2022-07-10 18:39:31.263
163.0, 34177.18072857627, 32422.12175394556, -12558.372325703183, -37930.999747633905, 11942.51471072611, 28696.465932901614, -11710.03421664646, 21684.701345527334, 0.034, 0.966, 0.19, 192.0, 0.0, 0.0, 0.0, 0.0, 0.0, 0.0, 0.0, 0.0, 0.0, 1.657492771263167E9, 0.0, 2022-07-10 18:39:31.263
164.0, 36005.97810816504, 32556.522793355325, -12633.049503928365, -37369.1215955164, 11682.496867477521, 32772.619458749235, -11954.584652731974, 22909.28636900024, 0.034, 0.966, 0.19, 192.0, 0.0, 0.0, 0.0, 0.0, 0.0, 0.0, 0.0, 0.0, 0.0, 1.657492771268795E9, 0.0, 2022-07-10 18:39:31.268
165.0, 37055.7948417419, 32559.07089222323, -12858.69036420469, -37857.8871915206, 11522.27956322188, 35722.62504370511, -12130.559936828606, 22723.945703976835, 0.034, 0.966, 0.19, 192.0, 0.0, 0.0, 0.0, 0.0, 0.0, 0.0, 0.0, 0.0, 0.0, 1.65749277126882E9, 0.0, 2022-07-10 18:39:31.268
166.0, 35409.83473179755, 32429.721347060367, -12796.53016287448, -38426.42616348579, 11760.459752137633, 32096.658002931836, -11916.027893546569, 21532.30715183105, 0.034, 0.966, 0.19, 192.0, 0.0, 0.0, 0.0, 0.0, 0.0, 0.0, 0.0, 0.0, 0.0, 1.657492771275697E9, 0.0, 2022-07-10 18:39:31.275
167.0, 34120.96609127118, 32402.116942658064, -12577.997157334943, -38060.90808640815, 11948.817902662506, 28621.36407153178, -11707.083786378358, 21507.809639908035, 0.034, 0.968, 0.194, 192.0, 1.0, 16.0, 30.0, 64.0, 6.0, 16.0, 0.0, 0.0, 0.0, 1.657492771276004E9, 0.0, 2022-07-10 18:39:31.276
168.0, 35631.161705394, 32542.5306013263, -12591.609369708225, -37395.228433040196, 11751.56375784442, 31814.422525694674, -11880.868599518371, 22739.32370416209, 0.034, 0.968, 0.194, 192.0, 0.0, 0.0, 0.0, 0.0, 0.0, 0.0, 0.0, 0.0, 0.0, 1.657492771283758E9, 0.0, 2022-07-10 18:39:31.283
169.0, 37110.37780170176, 32593.40317170658, -12815.931477061687, -37703.03430593423, 11536.025886061894, 35684.64942987555, -12109.482241807253, 22888.499246656807, 0.034, 0.968, 0.194, 192.0, 0.0, 0.0, 0.0, 0.0, 0.0, 0.0, 0.0, 0.0, 0.0, 1.657492771283778E9, 0.0, 2022-07-10 18:39:31.283
170.0, 35808.79101858032, 32467.160519023008, -12817.63020964029, -38364.33301738895, 11715.286876593456, 33002.50715047206, -11937.843196134949, 21718.92186628841, 0.034, 0.968, 0.194, 192.0, 0.0, 0.0, 0.0, 0.0, 0.0, 0.0, 0.0, 0.0, 0.0, 1.657492771290276E9, 0.0, 2022-07-10 18:39:31.290
171.0, 34168.0165133496, 32398.205387378384, -12609.155489105642, -38178.4112070097, 11943.051152593036, 28811.823286035455, -11705.69797822213, 21382.639870958315, 0.034, 0.968, 0.194, 192.0, 0.0, 0.0, 0.0, 0.0, 0.0, 0.0, 0.0, 0.0, 0.0, 1.65749277129721E9, 0.0, 2022-07-10 18:39:31.297
172.0, 35236.631064013374, 32514.43445854598, -12566.083677540264, -37460.89785824989, 11805.029130581515, 30884.07586623143, -11833.885232673316, 22527.451518470232, 0.034, 0.968, 0.194, 192.0, 0.0, 0.0, 0.0, 0.0, 0.0, 0.0, 0.0, 0.0, 0.0, 1.657492771297228E9, 0.0, 2022-07-10 18:39:31.297
173.0, 37046.295350348395, 32592.710267628467, -12787.410651136715, -37578.28922012916, 11547.537034456378, 35424.18455173785, -12097.233485845743, 23007.164657970032, 0.034, 0.968, 0.194, 192.0, 0.0, 0.0, 0.0, 0.0, 0.0, 0.0, 0.0, 0.0, 0.0, 1.65749277130547E9, 0.0, 2022-07-10 18:39:31.305
174.0, 36181.8416335394, 32482.80674014172, -12850.599032711869, -38293.209766532156, 11657.954652065595, 33862.71403583456, -12005.144298689878, 21911.929179659986, 0.034, 0.968, 0.194, 192.0, 0.0, 0.0, 0.0, 0.0, 0.0, 0.0, 0.0, 0.0, 0.0, 1.6574927713055E9, 0.0, 2022-07-10 18:39:31.305
175.0, 34293.52155846615, 32394.047962909695, -12646.862882001744, -38283.37499897182, 11922.509899438608, 29205.281043682226, -11748.613327576319, 21296.339785616376, 0.034, 0.968, 0.194, 192.0, 0.0, 0.0, 0.0, 0.0, 0.0, 0.0, 0.0, 0.0, 0.0, 1.657492771313786E9, 0.0, 2022-07-10 18:39:31.313
176.0, 34856.874925717704, 32486.65124018803, -12546.72706684197, -37554.37285356198, 11852.034849171025, 30023.489001213195, -11801.229334024112, 22300.46955352659, 0.034, 0.968, 0.194, 192.0, 0.0, 0.0, 0.0, 0.0, 0.0, 0.0, 0.0, 0.0, 0.0, 1.657492771313804E9, 0.0, 2022-07-10 18:39:31.313
177.0, 36879.081950078245, 32593.850206595685, -12745.054095393909, -37466.91047750837, 11567.877121910708, 34916.35291771328, -12071.77484891115, 23067.08968485471, 0.026000000000000002, 0.964, 0.2, 192.0, 0.0, 208.0, 30.0, 32.0, 6.0, 64.0, 0.0, 0.0, 0.0, 1.657492771320221E9, 0.0, 2022-07-10 18:39:31.320
178.0, 36533.90396045494, 32509.53942651027, -12867.318137564438, -38181.3616372778, 11610.211325909058, 34629.80355379624, -12042.650525885883, 22152.880984888197, 0.026000000000000002, 0.964, 0.2, 192.0, 0.0, 0.0, 0.0, 0.0, 0.0, 0.0, 0.0, 0.0, 0.0, 1.657492771320261E9, 0.0, 2022-07-10 18:39:31.320
179.0, 34536.93205558444, 32398.94299494541, -12687.431298188127, -38354.654712039795, 11896.760689826095, 29847.737234561115, -11766.025336507004, 21295.98215770509, 0.026000000000000002, 0.964, 0.2, 192.0, 0.0, 0.0, 0.0, 0.0, 0.0, 0.0, 0.0, 0.0, 0.0, 1.65749277132789E9, 0.0, 2022-07-10 18:39:31.327
180.0, 34548.152631301, 32461.840803842642, -12535.260621936397, -37675.45225327638, 11901.029873017058, 29348.175745985, -11747.741609542563, 22053.661591251086, 0.026000000000000002, 0.964, 0.2, 192.0, 0.0, 0.0, 0.0, 0.0, 0.0, 0.0, 0.0, 0.0, 0.0, 1.657492771327909E9, 0.0, 2022-07-10 18:39:31.327
181.0, 36616.82893238413, 32592.039715294806, -12694.8967808362, -37393.14972080585, 11612.178279421125, 34217.01153719563, -12031.497005402685, 23055.80205390478, 0.026000000000000002, 0.964, 0.2, 192.0, 0.0, 0.0, 0.0, 0.0, 0.0, 0.0, 0.0, 0.0, 0.0, 1.657492771336039E9, 0.0, 2022-07-10 18:39:31.336
182.0, 36805.50000733137, 32539.021377446817, -12865.59705324138, -38058.00235962896, 11574.090906869282, 35194.09569431492, -12085.901151406902, 22375.303193962955, 0.026000000000000002, 0.964, 0.2, 192.0, 0.0, 0.0, 0.0, 0.0, 0.0, 0.0, 0.0, 0.0, 0.0, 1.65749277133609E9, 0.0, 2022-07-10 18:39:31.336
183.0, 34832.86915217271, 32407.41430609397, -12732.537118498936, -38399.55936665051, 11842.356543821877, 30601.929795972086, -11836.880366430327, 21326.469937142127, 0.026000000000000002, 0.964, 0.2, 192.0, 0.0, 0.0, 0.0, 0.0, 0.0, 0.0, 0.0, 0.0, 0.0, 1.657492771342599E9, 0.0, 2022-07-10 18:39:31.342
184.0, 34314.55454999859, 32436.359815163592, -12542.77080807338, -37820.73859223587, 11922.286381994056, 28864.171071549783, -11756.391734646766, 21792.146181123993, 0.026000000000000002, 0.964, 0.2, 192.0, 0.0, 0.0, 0.0, 0.0, 0.0, 0.0, 0.0, 0.0, 0.0, 1.657492771342618E9, 0.0, 2022-07-10 18:39:31.342
185.0, 36291.54399532604, 32577.466377909946, -12651.355582637261, -37362.81840358, 11650.198596739603, 33372.80850086314, -11997.164725919334, 22950.190061353453, 0.026000000000000002, 0.964, 0.2, 192.0, 0.0, 0.0, 0.0, 0.0, 0.0, 0.0, 0.0, 0.0, 0.0, 1.657492771349617E9, 0.0, 2022-07-10 18:39:31.349
186.0, 37015.248777299974, 32557.707435811455, -12859.852654916365, -37927.64698596561, 11540.85386286424, 35583.95482110439, -12114.667846520882, 22586.2813098766, 0.026000000000000002, 0.964, 0.2, 192.0, 0.0, 0.0, 0.0, 0.0, 0.0, 0.0, 0.0, 0.0, 0.0, 1.657492771349657E9, 0.0, 2022-07-10 18:39:31.349
187.0, 35191.189967535734, 32419.50659984429, -12774.178418419173, -38420.81587562751, 11799.843525867884, 31482.677934489006, -11869.133933679335, 21436.060540206498, 0.024, 0.9580000000000001, 0.20400000000000001, 192.0, 0.0, 192.0, 29.0, 240.0, 6.0, 96.0, 0.0, 0.0, 0.0, 1.657492771357443E9, 0.0, 2022-07-10 18:39:31.357
188.0, 34172.17393781828, 32405.201483392895, -12569.749363630935, -37967.58955330725, 11943.274670037588, 28631.109432114295, -11723.065283663904, 21606.89492307841, 0.024, 0.9580000000000001, 0.20400000000000001, 192.0, 0.0, 0.0, 0.0, 0.0, 0.0, 0.0, 0.0, 0.0, 0.0, 1.657492771365909E9, 0.0, 2022-07-10 18:39:31.365
189.0, 35908.50215059545, 32541.860048992643, -12626.276925358407, -37373.43548219627, 11698.701882207619, 32447.267466457783, -11960.329051056988, 22834.05039716368, 0.024, 0.9580000000000001, 0.20400000000000001, 192.0, 0.0, 0.0, 0.0, 0.0, 0.0, 0.0, 0.0, 0.0, 0.0, 1.657492771365969E9, 0.0, 2022-07-10 18:39:31.365
190.0, 37105.21454873259, 32563.652999836566, -12848.699134433167, -37794.475292500894, 11530.505005181432, 35707.29174700877, -12121.596887302028, 22762.36835269551, 0.024, 0.9580000000000001, 0.20400000000000001, 192.0, 0.0, 0.0, 0.0, 0.0, 0.0, 0.0, 0.0, 0.0, 0.0, 1.6574927713721E9, 0.0, 2022-07-10 18:39:31.372
191.0, 35556.75274810228, 32429.453126126904, -12817.652561384746, -38398.37472419438, 11745.573490330398, 32376.479491767826, -11920.654704648818, 21574.03785872911, 0.024, 0.9580000000000001, 0.20400000000000001, 192.0, 0.0, 0.0, 0.0, 0.0, 0.0, 0.0, 0.0, 0.0, 0.0, 1.657492771372128E9, 0.0, 2022-07-10 18:39:31.372
192.0, 34135.51707691158, 32387.7447709733, -12598.58311397828, -38097.09556068129, 11946.22510030569, 28641.994731664032, -11726.708618010118, 21442.251973420618, 0.024, 0.9580000000000001, 0.20400000000000001, 192.0, 0.0, 0.0, 0.0, 0.0, 0.0, 0.0, 0.0, 0.0, 0.0, 1.657492771380452E9, 0.0, 2022-07-10 18:39:31.380
193.0, 35505.09786666607, 32517.407240558536, -12592.25757029743, -37410.02528786961, 11759.968013759615, 31491.03748691529, -11888.222323444168, 22661.29376426861, 0.024, 0.9580000000000001, 0.20400000000000001, 192.0, 0.0, 0.0, 0.0, 0.0, 0.0, 0.0, 0.0, 0.0, 0.0, 1.6574927713805E9, 0.0, 2022-07-10 18:39:31.380
194.0, 37105.48276966605, 32575.70059009798, -12817.697264873656, -37657.90613387896, 11532.315496482313, 35604.94310914792, -12116.098358166022, 22918.003549337813, 0.024, 0.9580000000000001, 0.20400000000000001, 192.0, 0.0, 0.0, 0.0, 0.0, 0.0, 0.0, 0.0, 0.0, 0.0, 1.657492771388382E9, 0.0, 2022-07-10 18:39:31.388
195.0, 35938.58759863229, 32454.04004502774, -12841.8818523743, -38344.19409563471, 11686.743698924029, 33253.60664768299, -11976.93639718728, 21749.40964572545, 0.024, 0.9580000000000001, 0.20400000000000001, 192.0, 0.0, 0.0, 0.0, 0.0, 0.0, 0.0, 0.0, 0.0, 0.0, 1.657492771388408E9, 0.0, 2022-07-10 18:39:31.388
196.0, 34213.926996460796, 32385.844872694597, -12628.109768403741, -38210.66477425871, 11924.49920469513, 28888.467417772703, -11738.71150478262, 21323.340692918384, 0.024, 0.9580000000000001, 0.20400000000000001, 192.0, 0.0, 0.0, 0.0, 0.0, 0.0, 0.0, 0.0, 0.0, 0.0, 1.657492771396758E9, 0.0, 2022-07-10 18:39:31.396
197.0, 35126.68283303772, 32500.330507794682, -12573.415049721605, -37498.828768590545, 11799.66471191224, 30578.885147438665, -11852.817160226961, 22428.187421344213, 0.024, 0.9520000000000001, 0.202, 192.0, 0.0, 192.0, 29.0, 192.0, 6.0, 80.0, 0.0, 0.0, 0.0, 1.657492771396779E9, 0.0, 2022-07-10 18:39:31.396
198.0, 37004.40818123915, 32593.671392640044, -12783.454392368127, -37552.54001051665, 11542.463188465023, 35238.17333438079, -12113.192631386833, 23000.50383812235, 0.024, 0.9520000000000001, 0.202, 192.0, 0.0, 0.0, 0.0, 0.0, 0.0, 0.0, 0.0, 0.0, 0.0, 1.657492771402896E9, 0.0, 2022-07-10 18:39:31.402
199.0, 36300.70821055272, 32487.455902988426, -12859.047992115975, -38255.25650444705, 11638.68744834512, 34073.42393081474, -12033.687476359306, 21972.6365176006, 0.024, 0.9520000000000001, 0.202, 192.0, 0.0, 0.0, 0.0, 0.0, 0.0, 0.0, 0.0, 0.0, 0.0, 1.65749277140292E9, 0.0, 2022-07-10 18:39:31.402
200.0, 34361.73908254374, 32379.45227378038, -12670.667489846646, -38310.2417958071, 11901.253390461612, 29350.72384485291, -11774.764868589029, 21270.88114868178, 0.024, 0.9520000000000001, 0.202, 192.0, 0.0, 0.0, 0.0, 0.0, 0.0, 0.0, 0.0, 0.0, 0.0, 1.657492771410739E9, 0.0, 2022-07-10 18:39:31.410
201.0, 34743.10454644019, 32468.881603346064, -12548.738723842946, -37598.58460409458, 11856.259328873079, 29751.71414038112, -11814.841546397394, 22182.519398035933, 0.024, 0.9520000000000001, 0.202, 192.0, 0.0, 0.0, 0.0, 0.0, 0.0, 0.0, 0.0, 0.0, 0.0, 1.65749277141079E9, 0.0, 2022-07-10 18:39:31.410
202.0, 36788.37857107861, 32590.87742458313, -12730.167833586675, -37439.77545973962, 11575.454363281056, 34662.99589431237, -12101.480317292253, 23026.61067564615, 0.024, 0.9520000000000001, 0.202, 192.0, 0.0, 0.0, 0.0, 0.0, 0.0, 0.0, 0.0, 0.0, 0.0, 1.657492771417998E9, 0.0, 2022-07-10 18:39:31.417
203.0, 36619.8911213745, 32518.614234759123, -12873.062535889452, -38140.74851760251, 11586.943159931083, 34787.517462672884, -12100.206267858299, 22192.175351640624, 0.024, 0.9520000000000001, 0.202, 192.0, 0.0, 0.0, 0.0, 0.0, 0.0, 0.0, 0.0, 0.0, 0.0, 1.657492771424615E9, 0.0, 2022-07-10 18:39:31.424
204.0, 34624.48383861588, 32401.8487217246, -12704.977417585544, -38365.897639500814, 11870.743259280118, 30046.533649746616, -11803.129232302814, 21274.79270396146, 0.024, 0.9520000000000001, 0.202, 192.0, 0.0, 0.0, 0.0, 0.0, 0.0, 0.0, 0.0, 0.0, 0.0, 1.657492771424634E9, 0.0, 2022-07-10 18:39:31.424
205.0, 34468.13338615101, 32462.958391065407, -12529.359761400196, -37706.543529813716, 11911.26697197759, 29152.91090642344, -11745.998173475049, 21955.470377858925, 0.024, 0.9520000000000001, 0.202, 192.0, 0.0, 0.0, 0.0, 0.0, 0.0, 0.0, 0.0, 0.0, 0.0, 1.657492771432532E9, 0.0, 2022-07-10 18:39:31.432
206.0, 36528.60659701903, 32596.912395586063, -12669.214626457051, -37360.02443552309, 11625.209346438569, 33948.18710663165, -12023.450377398774, 23022.60971338865, 0.024, 0.9520000000000001, 0.202, 192.0, 0.0, 0.0, 0.0, 0.0, 0.0, 0.0, 0.0, 0.0, 0.0, 1.657492771432554E9, 0.0, 2022-07-10 18:39:31.432
207.0, 36902.148950356124, 32553.550011342766, -12851.224881556616, -37996.60211761023, 11560.18812181808, 35344.12060309894, -12105.771852227672, 22438.87155519385, 0.024, 0.9500000000000001, 0.202, 192.0, 0.0, 192.0, 29.0, 176.0, 6.0, 80.0, 0.0, 0.0, 0.0, 1.657492771440548E9, 0.0, 2022-07-10 18:39:31.440
208.0, 34960.11763335677, 32423.17228593496, -12727.932659141143, -38393.07736075847, 11833.661715228764, 30865.479214844614, -11852.526587549042, 21343.74783560608, 0.024, 0.9500000000000001, 0.202, 192.0, 0.0, 0.0, 0.0, 0.0, 0.0, 0.0, 0.0, 0.0, 0.0, 1.6574927714406E9, 0.0, 2022-07-10 18:39:31.440
209.0, 34271.4380349443, 32446.529858890757, -12528.041008477332, -37840.45283084546, 11945.621603205396, 28735.20150604266, -11731.827167490384, 21727.504936159246, 0.024, 0.9500000000000001, 0.202, 192.0, 0.0, 0.0, 0.0, 0.0, 0.0, 0.0, 0.0, 0.0, 0.0, 1.657492771447697E9, 0.0, 2022-07-10 18:39:31.447
210.0, 36194.82799706793, 32592.30793622827, -12616.330399075796, -37329.648414808325, 11681.111059321292, 33057.80536625449, -11977.383432076387, 22932.129851833564, 0.024, 0.9500000000000001, 0.202, 192.0, 0.0, 0.0, 0.0, 0.0, 0.0, 0.0, 0.0, 0.0, 0.0, 1.657492771447765E9, 0.0, 2022-07-10 18:39:31.447
211.0, 37078.325400152855, 32584.10484601317, -12834.438721470682, -37860.055310732765, 11543.066685565316, 35623.07037390117, -12133.01862871869, 22640.372531458444, 0.024, 0.9500000000000001, 0.202, 192.0, 0.0, 0.0, 0.0, 0.0, 0.0, 0.0, 0.0, 0.0, 0.0, 1.657492771455127E9, 0.0, 2022-07-10 18:39:31.455
212.0, 35320.718326654234, 32439.712576831887, -12770.266863139495, -38399.58171839496, 11780.822191336418, 31725.350824040273, -11901.856887561904, 21452.176147958773, 0.024, 0.9500000000000001, 0.202, 192.0, 0.0, 0.0, 0.0, 0.0, 0.0, 0.0, 0.0, 0.0, 0.0, 1.657492771455146E9, 0.0, 2022-07-10 18:39:31.455
213.0, 34162.7638534026, 32414.7009747864, -12564.809628106312, -37997.987925766465, 11935.69742866724, 28574.98420178702, -11741.08078969488, 21525.48986977218, 0.024, 0.9500000000000001, 0.202, 192.0, 0.0, 0.0, 0.0, 0.0, 0.0, 0.0, 0.0, 0.0, 0.0, 1.657492771463178E9, 0.0, 2022-07-10 18:39:31.463
214.0, 35795.08939922922, 32555.71813055493, -12595.006834865431, -37371.312066473016, 11718.483176050566, 32105.956328625245, -11949.60021371844, 22760.244936972256, 0.024, 0.9500000000000001, 0.202, 192.0, 0.0, 0.0, 0.0, 0.0, 0.0, 0.0, 0.0, 0.0, 0.0, 1.657492771463287E9, 0.0, 2022-07-10 18:39:31.463
215.0, 37132.573083945885, 32584.283659968816, -12818.367817207316, -37734.349099916115, 11530.102673781237, 35664.622266843595, -12144.64153583545, 22805.216646816334, 0.024, 0.9500000000000001, 0.202, 192.0, 0.0, 0.0, 0.0, 0.0, 0.0, 0.0, 0.0, 0.0, 0.0, 1.657492771471489E9, 0.0, 2022-07-10 18:39:31.471
216.0, 35699.13336028258, 32447.5580391357, -12808.398939180248, -38365.629418567354, 11724.004056931026, 32633.122221603662, -11960.776085946094, 21613.600446415003, 0.024, 0.9500000000000001, 0.202, 192.0, 0.0, 0.0, 0.0, 0.0, 0.0, 0.0, 0.0, 0.0, 0.0, 1.657492771471516E9, 0.0, 2022-07-10 18:39:31.471
217.0, 34170.20698430622, 32396.752523988787, -12591.274093541395, -38120.83311329283, 11939.318411269, 28677.623412325793, -11740.521996083498, 21380.0470686015, 0.028, 0.9540000000000001, 0.21, 192.0, 0.0, 224.0, 29.0, 208.0, 6.0, 144.0, 0.0, 0.0, 0.0, 1.657492771477239E9, 0.0, 2022-07-10 18:39:31.477
218.0, 35395.79783627961, 32517.29548183626, -12572.498628198939, -37424.7327357212, 11767.165275474224, 31159.82933757655, -11896.984207270647, 22558.341629307466, 0.028, 0.9540000000000001, 0.21, 192.0, 0.0, 0.0, 0.0, 0.0, 0.0, 0.0, 0.0, 0.0, 0.0, 1.657492771484739E9, 0.0, 2022-07-10 18:39:31.484
219.0, 37097.86082480679, 32590.20687224947, -12797.91597103071, -37616.53305489219, 11518.368007942201, 35475.25828781823, -12152.554053372629, 22915.276636514263, 0.028, 0.9540000000000001, 0.21, 192.0, 0.0, 0.0, 0.0, 0.0, 0.0, 0.0, 0.0, 0.0, 0.0, 1.657492771484787E9, 0.0, 2022-07-10 18:39:31.484
220.0, 36083.292792235945, 32476.123568549585, -12842.015962841031, -38310.264147551556, 11652.769047351963, 33518.07248807818, -12036.213223482755, 21793.17436136894, 0.028, 0.9540000000000001, 0.21, 192.0, 0.0, 0.0, 0.0, 0.0, 0.0, 0.0, 0.0, 0.0, 0.0, 1.657492771492672E9, 0.0, 2022-07-10 18:39:31.492
221.0, 34266.364188952946, 32398.250090867296, -12627.416864325627, -38239.319710650416, 11917.458405191708, 28990.525482955636, -11766.651185351753, 21261.314602054907, 0.028, 0.9540000000000001, 0.21, 192.0, 0.0, 0.0, 0.0, 0.0, 0.0, 0.0, 0.0, 0.0, 0.0, 1.657492771492692E9, 0.0, 2022-07-10 18:39:31.492
222.0, 35000.462532098594, 32502.006888628828, -12541.541462128338, -37507.769466372665, 11828.073779114937, 30247.22996321082, -11850.872558459349, 22304.537571017456, 0.028, 0.9540000000000001, 0.21, 192.0, 0.0, 0.0, 0.0, 0.0, 0.0, 0.0, 0.0, 0.0, 0.0, 1.657492771501052E9, 0.0, 2022-07-10 18:39:31.501
223.0, 36965.225573209, 32598.991107820406, -12753.614813520291, -37492.324410954054, 11549.056953079338, 35053.72673913559, -12127.11776818249, 22991.294919406762, 0.028, 0.9540000000000001, 0.21, 192.0, 0.0, 0.0, 0.0, 0.0, 0.0, 0.0, 0.0, 0.0, 0.0, 1.657492771501096E9, 0.0, 2022-07-10 18:39:31.501
224.0, 36441.233627943235, 32511.19345559996, -12852.767151924034, -38211.31297484791, 11617.900326001683, 34306.194997572304, -12076.356956524487, 22007.616997673154, 0.028, 0.9540000000000001, 0.21, 192.0, 0.0, 0.0, 0.0, 0.0, 0.0, 0.0, 0.0, 0.0, 0.0, 1.657492771507353E9, 0.0, 2022-07-10 18:39:31.507
225.0, 34466.792281483686, 32406.430829337936, -12664.297242676885, -38315.516807498556, 11899.174678227268, 29527.3696812832, -11798.792993878484, 21217.19225850013, 0.028, 0.9540000000000001, 0.21, 192.0, 0.0, 0.0, 0.0, 0.0, 0.0, 0.0, 0.0, 0.0, 0.0, 1.657492771507373E9, 0.0, 2022-07-10 18:39:31.507
226.0, 34676.85397587466, 32481.689152918956, -12531.170252701075, -37618.365897937525, 11875.168904682268, 29510.047079330336, -11799.57530493442, 22084.37288813268, 0.028, 0.9540000000000001, 0.21, 192.0, 0.0, 0.0, 0.0, 0.0, 0.0, 0.0, 0.0, 0.0, 0.0, 1.657492771515537E9, 0.0, 2022-07-10 18:39:31.515
227.0, 36747.0725473252, 32607.149494546593, -12702.295208250905, -37405.286718045085, 11586.853752953262, 34425.79918215265, -12074.233540801233, 23017.915847053035, 0.032, 0.96, 0.212, 192.0, 1.0, 0.0, 30.0, 0.0, 6.0, 160.0, 0.0, 0.0, 0.0, 1.657492771515558E9, 0.0, 2022-07-10 18:39:31.515
228.0, 36742.93747460097, 32540.854220492154, -12854.376477524815, -38084.8915082087, 11583.746860473975, 34935.77658364494, -12100.809764958592, 22247.250049978502, 0.032, 0.96, 0.212, 192.0, 0.0, 0.0, 0.0, 0.0, 0.0, 0.0, 0.0, 0.0, 0.0, 1.657492771523368E9, 0.0, 2022-07-10 18:39:31.523
229.0, 34749.96653198797, 32418.724288788355, -12702.18344952863, -38356.53225857404, 11863.478942332142, 30249.487489400806, -11834.689895473706, 21273.518654527506, 0.032, 0.96, 0.212, 192.0, 0.0, 0.0, 0.0, 0.0, 0.0, 0.0, 0.0, 0.0, 0.0, 1.657492771523504E9, 0.0, 2022-07-10 18:39:31.523
230.0, 34427.363804264525, 32465.215917255395, -12531.393770145629, -37736.53957087274, 11910.708178366207, 28980.958936328763, -11777.76000234604, 21855.312210954693, 0.032, 0.96, 0.212, 192.0, 0.0, 0.0, 0.0, 0.0, 0.0, 0.0, 0.0, 0.0, 0.0, 1.657492771530048E9, 0.0, 2022-07-10 18:39:31.530
231.0, 36446.97802626825, 32602.925014844543, -12661.950309509077, -37352.87187729739, 11629.813805796362, 33644.47160297294, -12049.445456200297, 22952.581698010174, 0.032, 0.96, 0.212, 192.0, 0.0, 0.0, 0.0, 0.0, 0.0, 0.0, 0.0, 0.0, 0.0, 1.657492771530069E9, 0.0, 2022-07-10 18:39:31.530
232.0, 36973.316904701824, 32574.605354619667, -12848.341506521881, -37949.61875076518, 11550.688630424576, 35388.10883618699, -12144.753294557726, 22461.133892671336, 0.032, 0.96, 0.212, 192.0, 0.0, 0.0, 0.0, 0.0, 0.0, 0.0, 0.0, 0.0, 0.0, 1.657492771537078E9, 0.0, 2022-07-10 18:39:31.537
233.0, 35088.03666687449, 32447.267466457783, -12736.381618545249, -38381.16388096379, 11818.842508654894, 31079.34070579299, -11888.244675188622, 21344.440739684196, 0.032, 0.96, 0.212, 192.0, 0.0, 0.0, 0.0, 0.0, 0.0, 0.0, 0.0, 0.0, 0.0, 1.657492771545012E9, 0.0, 2022-07-10 18:39:31.545
234.0, 34248.50514513316, 32451.33548394865, -12535.99822950342, -37876.57324988523, 11940.54775721404, 28628.226057079562, -11754.894167768261, 21637.025074604164, 0.032, 0.96, 0.212, 192.0, 0.0, 0.0, 0.0, 0.0, 0.0, 0.0, 0.0, 0.0, 0.0, 1.657492771545036E9, 0.0, 2022-07-10 18:39:31.545
235.0, 36071.826347330374, 32587.368200703648, -12618.006779909943, -37340.80193529152, 11683.055661088903, 32709.565187640812, -11998.952865475758, 22851.887089239015, 0.032, 0.96, 0.212, 192.0, 0.0, 0.0, 0.0, 0.0, 0.0, 0.0, 0.0, 0.0, 0.0, 1.657492771553216E9, 0.0, 2022-07-10 18:39:31.553
236.0, 37113.35058371432, 32599.862825854165, -12835.846881371366, -37811.19439735346, 11527.509871424421, 35624.8585134576, -12167.417963435408, 22677.364668531976, 0.034, 0.9540000000000001, 0.212, 192.0, 1.0, 16.0, 29.0, 208.0, 6.0, 160.0, 0.0, 0.0, 0.0, 1.657492771553256E9, 0.0, 2022-07-10 18:39:31.553
237.0, 35465.35646502453, 32465.730007377868, -12787.924741259187, -38386.64005835534, 11753.284842167479, 32007.38513557734, -11946.336859027966, 21489.570616432502, 0.034, 0.9540000000000001, 0.212, 192.0, 0.0, 0.0, 0.0, 0.0, 0.0, 0.0, 0.0, 0.0, 0.0, 1.657492771559719E9, 0.0, 2022-07-10 18:39:31.559
238.0, 34174.45381575273, 32439.064376242684, -12564.452000195028, -38027.961615081025, 11942.22413804819, 28555.314666666352, -11748.479217109587, 21470.348116200938, 0.034, 0.9540000000000001, 0.212, 192.0, 0.0, 0.0, 0.0, 0.0, 0.0, 0.0, 0.0, 0.0, 0.0, 1.657492771559737E9, 0.0, 2022-07-10 18:39:31.559
239.0, 35676.356932682625, 32584.395418691092, -12574.286767755362, -37374.44131069676, 11747.674554309197, 31756.084472666324, -11933.842233877449, 22698.934101931347, 0.034, 0.9540000000000001, 0.212, 192.0, 0.0, 0.0, 0.0, 0.0, 0.0, 0.0, 0.0, 0.0, 0.0, 1.65749277156775E9, 0.0, 2022-07-10 18:39:31.567
240.0, 37140.37384276078, 32638.911323417586, -12801.089918743362, -37683.61064000257, 11540.071551808305, 35591.196786307904, -12149.514216126707, 22846.656781036472, 0.034, 0.9540000000000001, 0.212, 192.0, 0.0, 0.0, 0.0, 0.0, 0.0, 0.0, 0.0, 0.0, 0.0, 1.657492771567786E9, 0.0, 2022-07-10 18:39:31.567
241.0, 35842.542152707836, 32507.125438109095, -12811.550535148446, -38343.322377600954, 11705.206239844114, 32911.13321913877, -11991.621493294419, 21684.924862971886, 0.034, 0.9540000000000001, 0.212, 192.0, 0.0, 0.0, 0.0, 0.0, 0.0, 0.0, 0.0, 0.0, 0.0, 1.657492771575476E9, 0.0, 2022-07-10 18:39:31.575
242.0, 34217.972662207205, 32444.47349840087, -12594.760965676423, -38151.723224130066, 11939.452521735731, 28762.202413344672, -11763.544292872464, 21368.6923824182, 0.034, 0.9540000000000001, 0.212, 192.0, 0.0, 0.0, 0.0, 0.0, 0.0, 0.0, 0.0, 0.0, 0.0, 1.657492771575497E9, 0.0, 2022-07-10 18:39:31.575
243.0, 35283.21209945823, 32563.29537192528, -12547.95641278701, -37439.820163228535, 11798.234200267101, 30842.814545966932, -11894.63727410284, 22504.98801529265, 0.034, 0.9540000000000001, 0.212, 192.0, 0.0, 0.0, 0.0, 0.0, 0.0, 0.0, 0.0, 0.0, 0.0, 1.65749277158278E9, 0.0, 2022-07-10 18:39:31.582
244.0, 37086.19321420112, 32639.514820517878, -12775.497171342036, -37560.899562942934, 11527.822795846796, 35365.265353353665, -12150.967079516302, 22973.122951164598, 0.034, 0.9540000000000001, 0.212, 192.0, 0.0, 0.0, 0.0, 0.0, 0.0, 0.0, 0.0, 0.0, 0.0, 1.657492771582816E9, 0.0, 2022-07-10 18:39:31.582
245.0, 36226.07573581645, 32529.25366511985, -12841.099541318363, -38278.748187869576, 11646.219986226557, 33789.288555298874, -12051.077133545534, 21896.39471726355, 0.034, 0.9540000000000001, 0.212, 192.0, 0.0, 0.0, 0.0, 0.0, 0.0, 0.0, 0.0, 0.0, 0.0, 1.657492771590372E9, 0.0, 2022-07-10 18:39:31.590
246.0, 34352.86543999499, 32440.673701843465, -12636.983410952498, -38265.158327240744, 11914.910306323804, 29164.44440656238, -11786.588941405886, 21298.932587973188, 0.038, 0.9560000000000001, 0.21, 192.0, 1.0, 48.0, 29.0, 224.0, 6.0, 144.0, 0.0, 0.0, 0.0, 1.657492771590431E9, 0.0, 2022-07-10 18:39:31.590
247.0, 34917.38109795822, 32539.06608093573, -12528.53274685535, -37536.111478342, 11853.48771256062, 30012.22372200772, -11827.20206108118, 22288.444315009634, 0.038, 0.9560000000000001, 0.21, 192.0, 0.0, 0.0, 0.0, 0.0, 0.0, 0.0, 0.0, 0.0, 0.0, 1.657492771597615E9, 0.0, 2022-07-10 18:39:31.597
248.0, 36914.375354573174, 32644.56631476478, -12727.418569018671, -37456.13693668091, 11572.86156092424, 34867.514356078435, -12102.06146264809, 23044.581478188215, 0.038, 0.9560000000000001, 0.21, 192.0, 0.0, 0.0, 0.0, 0.0, 0.0, 0.0, 0.0, 0.0, 0.0, 1.657492771597638E9, 0.0, 2022-07-10 18:39:31.597
249.0, 36548.61140830653, 32557.34980790017, -12848.252099544061, -38177.83006165386, 11606.836212496306, 34510.73581108282, -12082.369575782965, 22133.010284067426, 0.038, 0.9560000000000001, 0.21, 192.0, 0.0, 0.0, 0.0, 0.0, 0.0, 0.0, 0.0, 0.0, 0.0, 1.657492771605344E9, 0.0, 2022-07-10 18:39:31.605
250.0, 34571.59961123462, 32449.569696136678, -12668.544074123392, -38352.486592827634, 11888.334082166444, 29757.972628828604, -11802.52573520252, 21287.644957023258, 0.038, 0.9560000000000001, 0.21, 192.0, 0.0, 0.0, 0.0, 0.0, 0.0, 0.0, 0.0, 0.0, 0.0, 1.657492771613658E9, 0.0, 2022-07-10 18:39:31.613
251.0, 34607.11653317411, 32515.01560390182, -12526.364627643185, -37668.702026450876, 11890.077518233958, 29339.860897047627, -11801.609313679852, 22045.905535925096, 0.038, 0.9560000000000001, 0.21, 192.0, 0.0, 0.0, 0.0, 0.0, 0.0, 0.0, 0.0, 0.0, 0.0, 1.657492771613679E9, 0.0, 2022-07-10 18:39:31.613
252.0, 36658.04554915972, 32645.013349653884, -12687.006615043476, -37395.094322573466, 11606.97032296304, 34185.875557169384, -12081.63196821594, 23024.04022503379, 0.038, 0.9560000000000001, 0.21, 192.0, 0.0, 0.0, 0.0, 0.0, 0.0, 0.0, 0.0, 0.0, 0.0, 1.657492771619945E9, 0.0, 2022-07-10 18:39:31.619
253.0, 36825.035431985314, 32595.3924769631, -12844.698172175667, -38052.86145840424, 11584.640930252186, 35093.95987915515, -12110.242201118732, 22360.03695249998, 0.038, 0.9560000000000001, 0.21, 192.0, 0.0, 0.0, 0.0, 0.0, 0.0, 0.0, 0.0, 0.0, 0.0, 1.657492771619976E9, 0.0, 2022-07-10 18:39:31.619
254.0, 34868.631943301196, 32470.66974290249, -12707.994903087008, -38395.22312822618, 11857.3992678403, 30528.37020496967, -11844.301145589488, 21346.765321107545, 0.038, 0.9560000000000001, 0.21, 192.0, 0.0, 0.0, 0.0, 0.0, 0.0, 0.0, 0.0, 0.0, 0.0, 1.657492771627929E9, 0.0, 2022-07-10 18:39:31.627
255.0, 34366.07532096807, 32502.76684794031, -12518.42975836155, -37811.90965317603, 11941.240661292155, 28842.646341639324, -11748.233347920579, 21829.853574020097, 0.038, 0.9560000000000001, 0.21, 192.0, 0.0, 0.0, 0.0, 0.0, 0.0, 0.0, 0.0, 0.0, 0.0, 1.657492771627949E9, 0.0, 2022-07-10 18:39:31.627
0.0, 36327.26208296562, 32634.575084993256, -12633.45183532856, -37357.16341223281, 11665.911873091683, 33332.46360212131, -12011.671008070829, 22968.563195295716, 0.04, 0.9500000000000001, 0.214, 192.0, 1.0, 64.0, 29.0, 176.0, 6.0, 176.0, 0.0, 0.0, 0.0, 1.657492771636926E9, 0.0, 2022-07-10 18:39:31.636
1.0, 37024.3906407822, 32611.552788204288, -12835.06457031543, -37925.36710803117, 11556.008345604938, 35463.52362197919, -12137.198404931833, 22573.160835881336, 0.04, 0.9500000000000001, 0.214, 192.0, 0.0, 0.0, 0.0, 0.0, 0.0, 0.0, 0.0, 0.0, 0.0, 1.657492771636988E9, 0.0, 2022-07-10 18:39:31.636
2.0, 35217.69913645973, 32472.815510370197, -12754.508883298504, -38429.242483287155, 11796.66957815523, 31385.53725308624, -11909.277666721067, 21438.20630767421, 0.04, 0.9500000000000001, 0.214, 192.0, 0.0, 0.0, 0.0, 0.0, 0.0, 0.0, 0.0, 0.0, 0.0, 1.657492771644144E9, 0.0, 2022-07-10 18:39:31.644
3.0, 34225.21462741073, 32469.730969635366, -12544.290726696341, -37974.18331792156, 11950.248414307645, 28590.94334732811, -11753.910691012226, 21616.014434816174, 0.04, 0.9500000000000001, 0.214, 192.0, 0.0, 0.0, 0.0, 0.0, 0.0, 0.0, 0.0, 0.0, 0.0, 1.657492771644187E9, 0.0, 2022-07-10 18:39:31.644
4.0, 35949.696415626575, 32600.68984039901, -12599.901866901144, -37372.429653695785, 11716.918553938694, 32401.960480446876, -11979.775068733104, 22828.931847683412, 0.04, 0.9500000000000001, 0.214, 192.0, 0.0, 0.0, 0.0, 0.0, 0.0, 0.0, 0.0, 0.0, 0.0, 1.657492771650902E9, 0.0, 2022-07-10 18:39:31.650
5.0, 37122.44774370763, 32609.876407370142, -12833.075265058907, -37800.823187926195, 11533.723656382997, 35615.895463931025, -12171.798905348649, 22746.140986220955, 0.04, 0.9500000000000001, 0.214, 192.0, 0.0, 0.0, 0.0, 0.0, 0.0, 0.0, 0.0, 0.0, 0.0, 1.657492771650924E9, 0.0, 2022-07-10 18:39:31.650
6.0, 35580.60205943609, 32479.789254640255, -12804.44268041166, -38420.25708201612, 11742.734818784575, 32279.361162109515, -11976.042327409068, 21553.51895731914, 0.04, 0.9500000000000001, 0.214, 192.0, 0.0, 0.0, 0.0, 0.0, 0.0, 0.0, 0.0, 0.0, 0.0, 1.657492771658751E9, 0.0, 2022-07-10 18:39:31.658
7.0, 34176.33136228697, 32444.540553634233, -12578.690061413057, -38108.427895120134, 11951.3212980415, 28581.108579767773, -11755.587071846376, 21450.164490957795, 0.04, 0.9500000000000001, 0.214, 192.0, 0.0, 0.0, 0.0, 0.0, 0.0, 0.0, 0.0, 0.0, 0.0, 1.657492771658782E9, 0.0, 2022-07-10 18:39:31.658
8.0, 35547.32031194214, 32576.68406685401, -12574.8679131112, -37413.668622215824, 11760.99619400456, 31442.042463069258, -11928.209594274711, 22654.699999654295, 0.04, 0.9500000000000001, 0.214, 192.0, 0.0, 0.0, 0.0, 0.0, 0.0, 0.0, 0.0, 0.0, 0.0, 1.657492771664658E9, 0.0, 2022-07-10 18:39:31.664
9.0, 37139.88210438277, 32637.99490189492, -12804.889715300766, -37659.604866457565, 11527.4204644466, 35532.81402979064, -12170.54720765915, 22908.928741088956, 0.04, 0.9500000000000001, 0.214, 192.0, 0.0, 0.0, 0.0, 0.0, 0.0, 0.0, 0.0, 0.0, 0.0, 1.657492771672373E9, 0.0, 2022-07-10 18:39:31.672
10.0, 35974.68566592761, 32524.023356917307, -12823.173442265206, -38357.78395626354, 11694.298588549924, 33181.11994041442, -12016.47663312872, 21760.07142783063, 0.03, 0.9500000000000001, 0.212, 192.0, 0.0, 240.0, 29.0, 176.0, 6.0, 160.0, 0.0, 0.0, 0.0, 1.657492771672404E9, 0.0, 2022-07-10 18:39:31.672
11.0, 34247.72283407722, 32458.197469496426, -12598.024320366898, -38224.74637326555, 11952.394181775355, 28831.872800811863, -11756.65995558023, 21341.35619894936, 0.03, 0.9500000000000001, 0.212, 192.0, 0.0, 0.0, 0.0, 0.0, 0.0, 0.0, 0.0, 0.0, 0.0, 1.657492771680471E9, 0.0, 2022-07-10 18:39:31.680
12.0, 35159.025807264545, 32569.240935950394, -12531.751398056913, -37486.378846928936, 11833.48290127312, 30537.04268181833, -11859.992070197115, 22446.426444819743, 0.03, 0.9500000000000001, 0.212, 192.0, 0.0, 0.0, 0.0, 0.0, 0.0, 0.0, 0.0, 0.0, 0.0, 1.657492771680494E9, 0.0, 2022-07-10 18:39:31.680
13.0, 37038.829867700326, 32649.997788667417, -12757.48166531106, -37540.02303362168, 11558.534092728389, 35198.07430482797, -12136.30433515362, 23006.382346914095, 0.03, 0.9500000000000001, 0.212, 192.0, 0.0, 0.0, 0.0, 0.0, 0.0, 0.0, 0.0, 0.0, 0.0, 1.657492771688449E9, 0.0, 2022-07-10 18:39:31.688
14.0, 36331.7771353456, 32550.621932819122, -12840.54074770698, -38275.507184923554, 11658.02170729896, 33998.187958978175, -12048.104351532978, 21964.433427385502, 0.03, 0.9500000000000001, 0.212, 192.0, 0.0, 0.0, 0.0, 0.0, 0.0, 0.0, 0.0, 0.0, 0.0, 1.657492771688469E9, 0.0, 2022-07-10 18:39:31.688
15.0, 34409.21418776682, 32459.5609259082, -12634.480015573505, -38317.21554007716, 11947.476797995187, 29294.665669758997, -11765.600653362353, 21285.856817466836, 0.03, 0.9500000000000001, 0.212, 192.0, 0.0, 0.0, 0.0, 0.0, 0.0, 0.0, 0.0, 0.0, 0.0, 1.657492771694795E9, 0.0, 2022-07-10 18:39:31.694
16.0, 34801.15202679062, 32534.10399366665, -12527.012828232388, -37595.924746504395, 11885.853038531905, 29740.538268153465, -11810.773528906528, 22205.184066913615, 0.03, 0.9500000000000001, 0.212, 192.0, 0.0, 0.0, 0.0, 0.0, 0.0, 0.0, 0.0, 0.0, 0.0, 1.657492771694825E9, 0.0, 2022-07-10 18:39:31.694
17.0, 36842.46979266045, 32641.057090885293, -12724.646952706213, -37448.69380577729, 11584.797392463373, 34638.78895506728, -12112.410320330897, 23038.837079863202, 0.03, 0.9500000000000001, 0.212, 192.0, 0.0, 0.0, 0.0, 0.0, 0.0, 0.0, 0.0, 0.0, 0.0, 1.65749277170292E9, 0.0, 2022-07-10 18:39:31.702
18.0, 36646.04266238721, 32565.57524985972, -12859.45032351617, -38161.17801203466, 11606.567991562843, 34678.64211543109, -12102.620256259474, 22190.610729528755, 0.03, 0.9500000000000001, 0.212, 192.0, 0.0, 0.0, 0.0, 0.0, 0.0, 0.0, 0.0, 0.0, 0.0, 1.657492771702953E9, 0.0, 2022-07-10 18:39:31.702
19.0, 34649.316626705724, 32448.832088569652, -12695.142650025207, -38390.97629677967, 11887.3059019215, 29945.436709575264, -11820.474186000132, 21283.77810523249, 0.03, 0.9500000000000001, 0.212, 192.0, 0.0, 0.0, 0.0, 0.0, 0.0, 0.0, 0.0, 0.0, 0.0, 1.657492771711001E9, 0.0, 2022-07-10 18:39:31.711
20.0, 34510.71345933837, 32507.125438109095, -12531.930212012556, -37729.0070329913, 11923.739245383651, 29125.82059214361, -11780.173990747213, 21961.795921539775, 0.028, 0.9560000000000001, 0.20800000000000002, 192.0, 0.0, 224.0, 29.0, 224.0, 6.0, 128.0, 0.0, 0.0, 0.0, 1.657492771711105E9, 0.0, 2022-07-10 18:39:31.711
21.0, 36555.115765943025, 32640.83357344074, -12682.22334173004, -37382.46558695622, 11637.905137289184, 33896.1522455397, -12059.570796438551, 23002.493143378873, 0.028, 0.9560000000000001, 0.20800000000000002, 192.0, 0.0, 0.0, 0.0, 0.0, 0.0, 0.0, 0.0, 0.0, 0.0, 1.657492771718134E9, 0.0, 2022-07-10 18:39:31.718
22.0, 36896.22573807547, 32601.941538088508, -12863.7865619405, -38025.43586795758, 11579.522380771921, 35197.828435638956, -12123.608544303006, 22408.58494145691, 0.028, 0.9560000000000001, 0.20800000000000002, 192.0, 0.0, 0.0, 0.0, 0.0, 0.0, 0.0, 0.0, 0.0, 0.0, 1.657492771718198E9, 0.0, 2022-07-10 18:39:31.718
23.0, 34967.136081115736, 32474.447187715436, -12737.253336579006, -38425.397983240844, 11849.91143344777, 30738.253085405006, -11865.289433633023, 21336.908201802755, 0.028, 0.9560000000000001, 0.20800000000000002, 192.0, 0.0, 0.0, 0.0, 0.0, 0.0, 0.0, 0.0, 0.0, 0.0, 1.657492771724507E9, 0.0, 2022-07-10 18:39:31.724
24.0, 34298.662459690866, 32491.14394082355, -12533.874813780167, -37875.52271789584, 11958.2726905671, 28693.023764255497, -11749.999135732549, 21727.370825692517, 0.028, 0.9560000000000001, 0.20800000000000002, 192.0, 0.0, 0.0, 0.0, 0.0, 0.0, 0.0, 0.0, 0.0, 0.0, 1.657492771733019E9, 0.0, 2022-07-10 18:39:31.733
25.0, 36200.97472679314, 32624.78502092183, -12625.271096857918, -37365.05357802553, 11688.285969291446, 32994.706391657164, -12006.395996379375, 22904.368985220073, 0.028, 0.9560000000000001, 0.20800000000000002, 192.0, 0.0, 0.0, 0.0, 0.0, 0.0, 0.0, 0.0, 0.0, 0.0, 1.657492771733178E9, 0.0, 2022-07-10 18:39:31.733
26.0, 37069.094129692814, 32616.961910362475, -12844.92168962022, -37892.17476751504, 11546.53120595589, 35511.95985221385, -12155.526835385184, 22611.449374133277, 0.028, 0.9560000000000001, 0.20800000000000002, 192.0, 0.0, 0.0, 0.0, 0.0, 0.0, 0.0, 0.0, 0.0, 0.0, 1.657492771740398E9, 0.0, 2022-07-10 18:39:31.740
27.0, 35327.647367435384, 32483.81256864221, -12775.251302153029, -38439.43487875877, 11788.064156539936, 31636.07795668578, -11931.495300709641, 21439.525060597072, 0.028, 0.9560000000000001, 0.20800000000000002, 192.0, 0.0, 0.0, 0.0, 0.0, 0.0, 0.0, 0.0, 0.0, 0.0, 1.657492771740436E9, 0.0, 2022-07-10 18:39:31.740
28.0, 34191.64230723886, 32467.71931263439, -12562.172122260587, -38028.185132525585, 11952.55064398654, 28540.7860327704, -11767.388792918777, 21514.604570222447, 0.028, 0.9560000000000001, 0.20800000000000002, 192.0, 0.0, 0.0, 0.0, 0.0, 0.0, 0.0, 0.0, 0.0, 0.0, 1.657492771747077E9, 0.0, 2022-07-10 18:39:31.747
29.0, 35815.22832098345, 32608.490599213914, -12589.35184351824, -37384.63370616838, 11738.89031873826, 32059.48705190266, -11953.131789342378, 22741.916506518904, 0.028, 0.9560000000000001, 0.20800000000000002, 192.0, 0.0, 0.0, 0.0, 0.0, 0.0, 0.0, 0.0, 0.0, 0.0, 1.657492771747108E9, 0.0, 2022-07-10 18:39:31.747
30.0, 37148.95691263162, 32641.83940194123, -12816.803195095445, -37747.33546344465, 11546.151226300148, 35587.46404498387, -12144.30625966862, 22785.167132039922, 0.026000000000000002, 0.9560000000000001, 0.20800000000000002, 192.0, 0.0, 208.0, 29.0, 224.0, 6.0, 128.0, 0.0, 0.0, 0.0, 1.657492771755149E9, 0.0, 2022-07-10 18:39:31.755
31.0, 35719.16052331454, 32508.690060220968, -12807.124889746296, -38396.3630671934, 11734.911708225216, 32553.72882529841, -11963.99473714766, 21603.02807128764, 0.026000000000000002, 0.9560000000000001, 0.20800000000000002, 192.0, 0.0, 0.0, 0.0, 0.0, 0.0, 0.0, 0.0, 0.0, 0.0, 1.657492771755169E9, 0.0, 2022-07-10 18:39:31.755
32.0, 34187.90956591482, 32458.75626310781, -12584.72503241599, -38150.49387818502, 11948.1697020733, 28617.251350552007, -11739.89614723875, 21379.17535056774, 0.026000000000000002, 0.9560000000000001, 0.20800000000000002, 192.0, 0.0, 0.0, 0.0, 0.0, 0.0, 0.0, 0.0, 0.0, 0.0, 1.657492771763203E9, 0.0, 2022-07-10 18:39:31.763
33.0, 35430.95713030781, 32581.690857612, -12564.452000195028, -37430.99122416869, 11778.296444212967, 31150.82158456106, -11902.885067806848, 22563.326068321, 0.026000000000000002, 0.9560000000000001, 0.20800000000000002, 192.0, 0.0, 0.0, 0.0, 0.0, 0.0, 0.0, 0.0, 0.0, 0.0, 1.657492771763255E9, 0.0, 2022-07-10 18:39:31.763
34.0, 37123.475923952574, 32650.802451467807, -12791.590427349858, -37624.49027591828, 11540.339772741769, 35425.23508372725, -12157.046754008146, 22900.949168318413, 0.026000000000000002, 0.9560000000000001, 0.20800000000000002, 192.0, 0.0, 0.0, 0.0, 0.0, 0.0, 0.0, 0.0, 0.0, 0.0, 1.657492771771413E9, 0.0, 2022-07-10 18:39:31.771
35.0, 36088.746617883044, 32534.81924948922, -12838.819663383922, -38333.77818271854, 11672.773858639463, 33403.02805936671, -12037.017886283147, 21779.137465851007, 0.026000000000000002, 0.9560000000000001, 0.20800000000000002, 192.0, 0.0, 0.0, 0.0, 0.0, 0.0, 0.0, 0.0, 0.0, 0.0, 1.657492771771491E9, 0.0, 2022-07-10 18:39:31.771
36.0, 34285.83255837352, 32459.248001485827, -12621.78422472289, -38262.6325801173, 11936.367981000898, 28920.38570885488, -11775.480124411599, 21269.49534052555, 0.026000000000000002, 0.9560000000000001, 0.20800000000000002, 192.0, 0.0, 0.0, 0.0, 0.0, 0.0, 0.0, 0.0, 0.0, 0.0, 1.657492771777834E9, 0.0, 2022-07-10 18:39:31.777
37.0, 35050.08340478938, 32566.335209171204, -12543.173139473574, -37521.22521653476, 11837.752084464084, 30264.865489586056, -11856.39343933981, 22320.027329924982, 0.026000000000000002, 0.9560000000000001, 0.20800000000000002, 192.0, 0.0, 0.0, 0.0, 0.0, 0.0, 0.0, 0.0, 0.0, 0.0, 1.657492771777873E9, 0.0, 2022-07-10 18:39:31.777
38.0, 36995.15455903466, 32661.93362020655, -12756.587595532847, -37515.21259727629, 11558.71290668403, 35016.86871252879, -12131.990448473745, 22960.337753336164, 0.026000000000000002, 0.9560000000000001, 0.20800000000000002, 192.0, 0.0, 0.0, 0.0, 0.0, 0.0, 0.0, 0.0, 0.0, 0.0, 1.657492771785197E9, 0.0, 2022-07-10 18:39:31.785
39.0, 36443.24528494421, 32570.000895261874, -12858.422143271226, -38245.15351595325, 11625.879898772228, 34185.18265309127, -12084.805915928593, 21977.375087425124, 0.026000000000000002, 0.9560000000000001, 0.20800000000000002, 192.0, 0.0, 0.0, 0.0, 0.0, 0.0, 0.0, 0.0, 0.0, 0.0, 1.657492771792931E9, 0.0, 2022-07-10 18:39:31.792
40.0, 34477.02938044422, 32463.874812588074, -12673.170885225642, -38361.27082839857, 11901.946294539726, 29438.655607540088, -11814.886249886305, 21219.87446783477, 0.028, 0.9520000000000001, 0.20600000000000002, 192.0, 0.0, 224.0, 29.0, 192.0, 6.0, 112.0, 0.0, 0.0, 0.0, 1.657492771792958E9, 0.0, 2022-07-10 18:39:31.792
41.0, 34695.78590342831, 32536.473278578913, -12535.797063803324, -37650.35124425307, 11881.986186741136, 29470.462139899988, -11820.764758678051, 22067.22910013546, 0.028, 0.9520000000000001, 0.20600000000000002, 192.0, 0.0, 0.0, 0.0, 0.0, 0.0, 0.0, 0.0, 0.0, 0.0, 1.657492771800046E9, 0.0, 2022-07-10 18:39:31.800
42.0, 36760.66240795403, 32658.93848644954, -12709.581876943335, -37431.19238986878, 11591.637026266699, 34368.288143669146, -12104.318988838077, 22973.88291047608, 0.028, 0.9520000000000001, 0.20600000000000002, 192.0, 0.0, 0.0, 0.0, 0.0, 0.0, 0.0, 0.0, 0.0, 0.0, 1.657492771800103E9, 0.0, 2022-07-10 18:39:31.800
43.0, 36745.93260835798, 32591.346811216692, -12857.081038603907, -38124.27528193895, 11590.318273343835, 34831.304530060836, -12105.905962694404, 22211.286093149913, 0.028, 0.9520000000000001, 0.20600000000000002, 192.0, 0.0, 0.0, 0.0, 0.0, 0.0, 0.0, 0.0, 0.0, 0.0, 1.657492771807735E9, 0.0, 2022-07-10 18:39:31.807
44.0, 34745.27266565236, 32457.32575146267, -12708.397234487205, -38419.83239887147, 11862.383706853832, 30143.24964800473, -11852.951270693693, 21232.749072641025, 0.028, 0.9520000000000001, 0.20600000000000002, 192.0, 0.0, 0.0, 0.0, 0.0, 0.0, 0.0, 0.0, 0.0, 0.0, 1.657492771807786E9, 0.0, 2022-07-10 18:39:31.807
45.0, 34426.022699597204, 32496.441304259457, -12535.171214958575, -37784.03702784026, 11916.005541802115, 28902.504313290636, -11789.740537374084, 21814.453222090393, 0.028, 0.9520000000000001, 0.20600000000000002, 192.0, 0.0, 0.0, 0.0, 0.0, 0.0, 0.0, 0.0, 0.0, 0.0, 1.657492771815487E9, 0.0, 2022-07-10 18:39:31.815
46.0, 36454.91289554988, 32631.334082047237, -12669.169922968142, -37380.0739502995, 11632.317201175358, 33575.47176783941, -12055.86040685897, 22906.268883498775, 0.028, 0.9520000000000001, 0.20600000000000002, 192.0, 0.0, 0.0, 0.0, 0.0, 0.0, 0.0, 0.0, 0.0, 0.0, 1.65749277181552E9, 0.0, 2022-07-10 18:39:31.815
47.0, 36978.68132337109, 32604.914320101063, -12860.836131672399, -37984.64393432665, 11546.173578044603, 35290.0293815171, -12144.440370135353, 22419.04555786199, 0.028, 0.9520000000000001, 0.20600000000000002, 192.0, 0.0, 0.0, 0.0, 0.0, 0.0, 0.0, 0.0, 0.0, 0.0, 1.657492771823329E9, 0.0, 2022-07-10 18:39:31.823
48.0, 35081.46525400463, 32474.7154086489, -12757.436961822148, -38438.71962293621, 11807.756043405063, 30968.252535850115, -11888.490544377632, 21311.762489290537, 0.028, 0.9520000000000001, 0.20600000000000002, 192.0, 0.0, 0.0, 0.0, 0.0, 0.0, 0.0, 0.0, 0.0, 0.0, 1.657492771823349E9, 0.0, 2022-07-10 18:39:31.823
49.0, 34255.92592429232, 32486.33831576566, -12546.838825564246, -37914.7500294149, 11939.832501391471, 28564.65769584867, -11751.519054355509, 21614.94155108232, 0.028, 0.9520000000000001, 0.20600000000000002, 192.0, 0.0, 0.0, 0.0, 0.0, 0.0, 0.0, 0.0, 0.0, 0.0, 1.657492771830436E9, 0.0, 2022-07-10 18:39:31.830
50.0, 36094.60277493033, 32629.836515168732, -12620.487823544481, -37355.06234825401, 11688.733004180553, 32667.94623946503, -11992.023824694614, 22816.079594621613, 0.026000000000000002, 0.9520000000000001, 0.20800000000000002, 192.0, 0.0, 208.0, 29.0, 192.0, 6.0, 128.0, 0.0, 0.0, 0.0, 1.657492771830498E9, 0.0, 2022-07-10 18:39:31.830
51.0, 37113.01530754749, 32638.50899201739, -12837.54561394997, -37833.25556913085, 11539.400999474645, 35503.44383757637, -12157.516140641706, 22619.026615503626, 0.026000000000000002, 0.9520000000000001, 0.20800000000000002, 192.0, 0.0, 0.0, 0.0, 0.0, 0.0, 0.0, 0.0, 0.0, 0.0, 1.657492771838016E9, 0.0, 2022-07-10 18:39:31.838
52.0, 35452.97359859629, 32500.57637698369, -12784.661386568712, -38411.763419123105, 11767.925234785705, 31854.230982569574, -11941.55358571453, 21442.788415287545, 0.026000000000000002, 0.9520000000000001, 0.20800000000000002, 192.0, 0.0, 0.0, 0.0, 0.0, 0.0, 0.0, 0.0, 0.0, 0.0, 1.657492771838035E9, 0.0, 2022-07-10 18:39:31.838
53.0, 34179.170033832794, 32469.887431846553, -12567.178913018575, -38053.5320107379, 11948.3708677734, 28481.06217158582, -11752.815455533917, 21428.125670924863, 0.026000000000000002, 0.9520000000000001, 0.20800000000000002, 192.0, 0.0, 0.0, 0.0, 0.0, 0.0, 0.0, 0.0, 0.0, 0.0, 1.657492771845154E9, 0.0, 2022-07-10 18:39:31.845
54.0, 35703.67076440701, 32611.329270759736, -12578.019509079399, -37377.43644445377, 11745.908766497227, 31740.885286436715, -11945.129864827379, 22647.1451100284, 0.026000000000000002, 0.9520000000000001, 0.20800000000000002, 192.0, 0.0, 0.0, 0.0, 0.0, 0.0, 0.0, 0.0, 0.0, 0.0, 1.657492771845184E9, 0.0, 2022-07-10 18:39:31.845
55.0, 37163.59730524985, 32659.430224827556, -12803.213334466618, -37691.83608196212, 11532.94134532706, 35532.99284374629, -12162.74644884425, 22774.482998190284, 0.026000000000000002, 0.9520000000000001, 0.20800000000000002, 192.0, 0.0, 0.0, 0.0, 0.0, 0.0, 0.0, 0.0, 0.0, 0.0, 1.657492771852141E9, 0.0, 2022-07-10 18:39:31.852
56.0, 35836.238960771436, 32531.578246543202, -12805.381453678781, -38362.96956097717, 11717.097367894337, 32770.33958081479, -12004.004359722658, 21597.171914240353, 0.026000000000000002, 0.9520000000000001, 0.20800000000000002, 192.0, 0.0, 0.0, 0.0, 0.0, 0.0, 0.0, 0.0, 0.0, 0.0, 1.657492771860321E9, 0.0, 2022-07-10 18:39:31.860
57.0, 34205.90272020134, 32464.85828934411, -12595.58798022127, -38171.59392495083, 11942.447655492742, 28641.502993286016, -11782.543275659476, 21284.359250588328, 0.026000000000000002, 0.9520000000000001, 0.20800000000000002, 192.0, 0.0, 0.0, 0.0, 0.0, 0.0, 0.0, 0.0, 0.0, 0.0, 1.657492771860434E9, 0.0, 2022-07-10 18:39:31.860
58.0, 35301.6299368894, 32579.858014566664, -12557.8135320918, -37448.47028833274, 11792.132174030803, 30816.327728787393, -11900.336968938944, 22432.322494068445, 0.026000000000000002, 0.9520000000000001, 0.20800000000000002, 192.0, 0.0, 0.0, 0.0, 0.0, 0.0, 0.0, 0.0, 0.0, 0.0, 1.657492771868552E9, 0.0, 2022-07-10 18:39:31.868
59.0, 37095.26802244998, 32660.99484693943, -12774.62545330828, -37571.69545551485, 11545.391266988669, 35277.84768078896, -12137.913660754402, 22882.240758209322, 0.026000000000000002, 0.9520000000000001, 0.20800000000000002, 192.0, 0.0, 0.0, 0.0, 0.0, 0.0, 0.0, 0.0, 0.0, 0.0, 1.657492771868587E9, 0.0, 2022-07-10 18:39:31.868
60.0, 36217.49266594561, 32550.711339796944, -12839.289050017484, -38288.515900196544, 11660.92743407815, 33642.1917250385, -12038.649563628383, 21804.573751041145, 0.034, 0.9580000000000001, 0.20800000000000002, 192.0, 1.0, 16.0, 29.0, 240.0, 6.0, 128.0, 0.0, 0.0, 0.0, 1.657492771877057E9, 0.0, 2022-07-10 18:39:31.877
61.0, 34350.18323066035, 32458.04100728524, -12639.352695864762, -38278.61407740284, 11919.69357963724, 29060.620553567478, -11777.268263968022, 21218.376900956264, 0.034, 0.9580000000000001, 0.20800000000000002, 192.0, 0.0, 0.0, 0.0, 0.0, 0.0, 0.0, 0.0, 0.0, 0.0, 1.657492771877076E9, 0.0, 2022-07-10 18:39:31.877
62.0, 34924.4442492061, 32564.368255659138, -12525.559964842792, -37544.38162379046, 11859.366221352366, 29941.45809906222, -11822.86582265685, 22203.127706423726, 0.034, 0.9580000000000001, 0.20800000000000002, 192.0, 0.0, 0.0, 0.0, 0.0, 0.0, 0.0, 0.0, 0.0, 0.0, 1.657492771883364E9, 0.0, 2022-07-10 18:39:31.883
63.0, 36935.989491461456, 32672.237774400448, -12726.770368429467, -37454.8405355025, 11572.995671390972, 34793.97711682047, -12113.550259298117, 22949.631267742072, 0.034, 0.9580000000000001, 0.20800000000000002, 192.0, 0.0, 0.0, 0.0, 0.0, 0.0, 0.0, 0.0, 0.0, 0.0, 1.657492771883397E9, 0.0, 2022-07-10 18:39:31.883
64.0, 36563.81059453614, 32585.289488469305, -12851.247233301072, -38183.48505300105, 11610.077215442327, 34399.468827184304, -12096.205305600799, 22026.481869993433, 0.034, 0.9580000000000001, 0.20800000000000002, 192.0, 0.0, 0.0, 0.0, 0.0, 0.0, 0.0, 0.0, 0.0, 0.0, 1.657492771890337E9, 0.0, 2022-07-10 18:39:31.890
65.0, 34568.17979433296, 32472.502585947823, -12676.858923060767, -38358.47686034165, 11888.647006588819, 29637.094394814303, -11820.29537204449, 21195.734583823036, 0.034, 0.9580000000000001, 0.20800000000000002, 192.0, 0.0, 0.0, 0.0, 0.0, 0.0, 0.0, 0.0, 0.0, 0.0, 1.657492771890358E9, 0.0, 2022-07-10 18:39:31.890
66.0, 34605.618966295595, 32540.25072339186, -12527.281049165851, -37671.9430293969, 11896.268951448077, 29238.22751500935, -11803.196287536179, 21959.87367151662, 0.034, 0.9580000000000001, 0.20800000000000002, 192.0, 0.0, 0.0, 0.0, 0.0, 0.0, 0.0, 0.0, 0.0, 0.0, 1.657492771898572E9, 0.0, 2022-07-10 18:39:31.898
67.0, 36682.52070933828, 32680.28440240436, -12683.251521974984, -37378.4199212098, 11617.341532390301, 34100.69305905021, -12072.11012507798, 22948.200756096932, 0.034, 0.9580000000000001, 0.20800000000000002, 192.0, 0.0, 0.0, 0.0, 0.0, 0.0, 0.0, 0.0, 0.0, 0.0, 1.65749277189864E9, 0.0, 2022-07-10 18:39:31.898
68.0, 36847.945970052, 32626.282587800335, -12850.710791434145, -38045.440679245075, 11589.96064543255, 34975.093302141824, -12103.067291148578, 22271.345230501323, 0.034, 0.9580000000000001, 0.20800000000000002, 192.0, 0.0, 0.0, 0.0, 0.0, 0.0, 0.0, 0.0, 0.0, 0.0, 1.657492771905273E9, 0.0, 2022-07-10 18:39:31.905
69.0, 34870.3306758798, 32492.19447281295, -12716.287400279929, -38393.949078792226, 11856.147570150802, 30375.998363017843, -11841.797750210495, 21250.853985649825, 0.034, 0.9580000000000001, 0.20800000000000002, 192.0, 0.0, 0.0, 0.0, 0.0, 0.0, 0.0, 0.0, 0.0, 0.0, 1.657492771905297E9, 0.0, 2022-07-10 18:39:31.905
70.0, 34385.43193166637, 32524.15746738404, -12530.544403856327, -37798.5209582473, 11931.338838498456, 28764.817567445945, -11759.99036550407, 21747.10741604655, 0.028, 0.96, 0.20800000000000002, 192.0, 0.0, 224.0, 30.0, 0.0, 6.0, 128.0, 0.0, 0.0, 0.0, 1.657492771912091E9, 0.0, 2022-07-10 18:39:31.912
71.0, 36370.132728830904, 32659.162003894093, -12652.45081811557, -37347.4180516503, 11653.037268285427, 33300.835883717045, -12035.565022893552, 22876.541063373217, 0.028, 0.96, 0.20800000000000002, 192.0, 0.0, 0.0, 0.0, 0.0, 0.0, 0.0, 0.0, 0.0, 0.0, 1.657492771919941E9, 0.0, 2022-07-10 18:39:31.919
72.0, 37047.32353059334, 32639.8053931958, -12854.7341054361, -37926.86467490967, 11547.626441434199, 35365.77944347614, -12156.934995285868, 22455.43419783523, 0.028, 0.96, 0.20800000000000002, 192.0, 0.0, 0.0, 0.0, 0.0, 0.0, 0.0, 0.0, 0.0, 0.0, 1.657492771919967E9, 0.0, 2022-07-10 18:39:31.919
73.0, 35208.601976466416, 32499.23527231637, -12761.013240934997, -38422.73812565066, 11801.028168324014, 31225.02937615268, -11905.611980630396, 21316.74692830407, 0.028, 0.96, 0.20800000000000002, 192.0, 0.0, 0.0, 0.0, 0.0, 0.0, 0.0, 0.0, 0.0, 0.0, 1.657492771928015E9, 0.0, 2022-07-10 18:39:31.928
74.0, 34229.662624557335, 32496.32954553718, -12542.48023539546, -37950.155192632104, 11946.448617750242, 28487.387715266672, -11744.99234497456, 21525.087538371987, 0.028, 0.96, 0.20800000000000002, 192.0, 0.0, 0.0, 0.0, 0.0, 0.0, 0.0, 0.0, 0.0, 0.0, 1.657492771928042E9, 0.0, 2022-07-10 18:39:31.928
75.0, 35982.88875614271, 32633.5022012594, -12603.053462869342, -37350.21201970721, 11707.12848986727, 32353.233677534306, -11976.89169369837, 22745.381026909476, 0.028, 0.96, 0.20800000000000002, 192.0, 0.0, 0.0, 0.0, 0.0, 0.0, 0.0, 0.0, 0.0, 0.0, 1.657492771934972E9, 0.0, 2022-07-10 18:39:31.934
76.0, 37155.32715980139, 32652.61294276869, -12827.889660345276, -37784.03702784026, 11539.915089597118, 35519.067706950635, -12160.220701720798, 22648.329752484533, 0.028, 0.96, 0.20800000000000002, 192.0, 0.0, 0.0, 0.0, 0.0, 0.0, 0.0, 0.0, 0.0, 0.0, 1.657492771934998E9, 0.0, 2022-07-10 18:39:31.934
77.0, 35601.85856841309, 32518.167199870015, -12792.797421550444, -38394.59727938143, 11755.765885802019, 32142.881410465412, -11951.03072536358, 21475.176093003287, 0.028, 0.96, 0.20800000000000002, 192.0, 0.0, 0.0, 0.0, 0.0, 0.0, 0.0, 0.0, 0.0, 0.0, 1.657492771942548E9, 0.0, 2022-07-10 18:39:31.942
78.0, 34199.733638731675, 32477.62113542809, -12578.623006179692, -38092.51345306796, 11953.534120742575, 28497.669517716113, -11744.969993230105, 21363.350315493386, 0.028, 0.96, 0.20800000000000002, 192.0, 0.0, 0.0, 0.0, 0.0, 0.0, 0.0, 0.0, 0.0, 0.0, 1.657492771942586E9, 0.0, 2022-07-10 18:39:31.942
79.0, 35584.17833854894, 32607.641232924612, -12577.974805590487, -37400.078761587, 11764.013679506026, 31405.229139951367, -11927.270821007589, 22562.32023982051, 0.028, 0.96, 0.20800000000000002, 192.0, 0.0, 0.0, 0.0, 0.0, 0.0, 0.0, 0.0, 0.0, 0.0, 1.657492771950455E9, 0.0, 2022-07-10 18:39:31.950
80.0, 37158.702273214134, 32664.70523651901, -12807.236648468572, -37655.20157279987, 11538.641040163166, 35424.743345349234, -12158.54432088665, 22795.94067286738, 0.028, 0.9580000000000001, 0.20600000000000002, 192.0, 0.0, 224.0, 29.0, 240.0, 6.0, 112.0, 0.0, 0.0, 0.0, 1.657492771950479E9, 0.0, 2022-07-10 18:39:31.950
81.0, 35979.51364272996, 32538.797860002265, -12835.086922059885, -38346.56338054698, 11694.276236805468, 33022.28844431501, -12013.414444138341, 21649.251478821217, 0.028, 0.9580000000000001, 0.20600000000000002, 192.0, 0.0, 0.0, 0.0, 0.0, 0.0, 0.0, 0.0, 0.0, 0.0, 1.657492771957844E9, 0.0, 2022-07-10 18:39:31.957
82.0, 34260.79860458358, 32468.85925160161, -12619.325532832807, -38211.80471322593, 11940.07837058048, 28717.141296522776, -11765.667708595718, 21240.371017500285, 0.028, 0.9580000000000001, 0.20600000000000002, 192.0, 0.0, 0.0, 0.0, 0.0, 0.0, 0.0, 0.0, 0.0, 0.0, 1.65749277195797E9, 0.0, 2022-07-10 18:39:31.957
83.0, 35190.51941520207, 32577.622840121134, -12556.092447768742, -37473.571297356044, 11812.29344752949, 30481.40918986907, -11877.515837850075, 22336.500565588543, 0.028, 0.9580000000000001, 0.20600000000000002, 192.0, 0.0, 0.0, 0.0, 0.0, 0.0, 0.0, 0.0, 0.0, 0.0, 1.657492771965082E9, 0.0, 2022-07-10 18:39:31.965
84.0, 37064.60142905729, 32662.872393473674, -12777.173552176184, -37536.089126597544, 11541.859691364729, 35103.884053693306, -12151.21294870531, 22876.026973250744, 0.028, 0.9580000000000001, 0.20600000000000002, 192.0, 0.0, 0.0, 0.0, 0.0, 0.0, 0.0, 0.0, 0.0, 0.0, 1.657492771965103E9, 0.0, 2022-07-10 18:39:31.965
85.0, 36338.750879615654, 32563.518889369836, -12861.350221794872, -38262.81139407294, 11632.987753509016, 33843.268018158444, -12087.421070029864, 21840.403597403, 0.028, 0.9580000000000001, 0.20600000000000002, 192.0, 0.0, 0.0, 0.0, 0.0, 0.0, 0.0, 0.0, 0.0, 0.0, 1.65749277197268E9, 0.0, 2022-07-10 18:39:31.972
86.0, 34410.04120231166, 32469.082769046163, -12659.692783319091, -38308.85598765087, 11906.014312030591, 29160.085816393595, -11815.62385745333, 21166.744371264504, 0.028, 0.9580000000000001, 0.20600000000000002, 192.0, 0.0, 0.0, 0.0, 0.0, 0.0, 0.0, 0.0, 0.0, 0.0, 1.657492771980099E9, 0.0, 2022-07-10 18:39:31.980
87.0, 34817.468800243, 32551.40424387506, -12535.394732403129, -37577.618667795505, 11867.189331911724, 29661.86012767078, -11821.502366245077, 22096.152257460628, 0.028, 0.9580000000000001, 0.20600000000000002, 192.0, 0.0, 0.0, 0.0, 0.0, 0.0, 0.0, 0.0, 0.0, 0.0, 1.657492771980123E9, 0.0, 2022-07-10 18:39:31.980
88.0, 36854.36092071068, 32655.965704436985, -12736.292211567428, -37442.83764873, 11570.179351589602, 34549.560791201686, -12109.526945296162, 22904.748964875816, 0.028, 0.9580000000000001, 0.20600000000000002, 192.0, 0.0, 0.0, 0.0, 0.0, 0.0, 0.0, 0.0, 0.0, 0.0, 1.657492771987339E9, 0.0, 2022-07-10 18:39:31.987
89.0, 36636.990205882816, 32566.804595804766, -12879.388079570304, -38164.73193940305, 11583.500991284965, 34537.06616605117, -12103.11199463749, 22053.54983252881, 0.028, 0.9580000000000001, 0.20600000000000002, 192.0, 0.0, 0.0, 0.0, 0.0, 0.0, 0.0, 0.0, 0.0, 0.0, 1.657492771987361E9, 0.0, 2022-07-10 18:39:31.987
90.0, 34634.54212362076, 32449.681454858957, -12714.499260723504, -38393.233822969654, 11864.618881299362, 29807.41468756374, -11836.790959452506, 21162.251670628986, 0.024, 0.9580000000000001, 0.214, 192.0, 0.0, 192.0, 29.0, 240.0, 6.0, 176.0, 0.0, 0.0, 0.0, 1.657492771994867E9, 0.0, 2022-07-10 18:39:31.994
91.0, 34496.698915564884, 32504.666746219013, -12550.280994210363, -37728.157666702, 11898.861753804893, 29012.854875666486, -11796.222543266123, 21840.94003926993, 0.024, 0.9580000000000001, 0.214, 192.0, 0.0, 0.0, 0.0, 0.0, 0.0, 0.0, 0.0, 0.0, 0.0, 1.657492771994887E9, 0.0, 2022-07-10 18:39:31.994
92.0, 36547.94085597287, 32635.87148617166, -12694.583856413825, -37385.68423815778, 11614.547564333388, 33784.92996513009, -12074.39000301242, 22864.67228706745, 0.024, 0.9580000000000001, 0.214, 192.0, 0.0, 0.0, 0.0, 0.0, 0.0, 0.0, 0.0, 0.0, 0.0, 1.657492772002824E9, 0.0, 2022-07-10 18:39:32.002
93.0, 36883.82051990277, 32590.363334460657, -12875.431820801714, -38024.273577245905, 11552.85674963674, 35062.756843895535, -12147.368448658997, 22273.669811924676, 0.024, 0.9580000000000001, 0.214, 192.0, 0.0, 0.0, 0.0, 0.0, 0.0, 0.0, 0.0, 0.0, 0.0, 1.657492772002856E9, 0.0, 2022-07-10 18:39:32.002
94.0, 34939.643435435704, 32459.583277652655, -12747.646897750725, -38413.95389007973, 11828.587869237408, 30589.34576384375, -11882.433221630243, 21216.409947444197, 0.024, 0.9580000000000001, 0.214, 192.0, 0.0, 0.0, 0.0, 0.0, 0.0, 0.0, 0.0, 0.0, 0.0, 1.657492772010845E9, 0.0, 2022-07-10 18:39:32.010
95.0, 34279.61877341494, 32477.732894150366, -12556.137151257653, -37855.11557520814, 11927.136710540857, 28588.50700718248, -11774.630758122297, 21618.786051128634, 0.024, 0.9580000000000001, 0.214, 192.0, 0.0, 0.0, 0.0, 0.0, 0.0, 0.0, 0.0, 0.0, 0.0, 1.657492772010872E9, 0.0, 2022-07-10 18:39:32.010
96.0, 36201.68998261571, 32614.279701027837, -12657.658774573658, -37356.9175430438, 11659.11694277727, 32928.70169028064, -12037.755493850173, 22783.22253027231, 0.024, 0.9580000000000001, 0.214, 192.0, 0.0, 0.0, 0.0, 0.0, 0.0, 0.0, 0.0, 0.0, 0.0, 1.657492772017497E9, 0.0, 2022-07-10 18:39:32.017
97.0, 37056.95713245358, 32608.132971302628, -12869.150980609773, -37890.185462258516, 11528.314534224814, 35377.15648140389, -12173.765858860716, 22474.54493934452, 0.024, 0.9580000000000001, 0.214, 192.0, 0.0, 0.0, 0.0, 0.0, 0.0, 0.0, 0.0, 0.0, 0.0, 1.657492772017528E9, 0.0, 2022-07-10 18:39:32.017
98.0, 35312.11290503894, 32475.922402849486, -12796.86543904131, -38427.297881519546, 11769.556912130942, 31461.443777256463, -11942.671172937295, 21312.58950383538, 0.024, 0.9580000000000001, 0.214, 192.0, 0.0, 0.0, 0.0, 0.0, 0.0, 0.0, 0.0, 0.0, 0.0, 1.65749277202555E9, 0.0, 2022-07-10 18:39:32.025
99.0, 34186.18848159176, 32463.51718467679, -12578.913578857611, -38006.14631249265, 11936.144463556346, 28395.007955432888, -11777.268263968022, 21409.976054427156, 0.024, 0.9580000000000001, 0.214, 192.0, 0.0, 0.0, 0.0, 0.0, 0.0, 0.0, 0.0, 0.0, 0.0, 1.657492772025593E9, 0.0, 2022-07-10 18:39:32.025
100.0, 35830.449858957516, 32604.511988700866, -12615.63749499768, -37375.76006361962, 11705.31799856639, 31967.777844402535, -11999.511659087142, 22625.79919407358, 0.024, 0.9560000000000001, 0.21, 192.0, 0.0, 192.0, 29.0, 224.0, 6.0, 144.0, 0.0, 0.0, 0.0, 1.657492772032527E9, 0.0, 2022-07-10 18:39:32.032
101.0, 37149.35924403182, 32640.16302110708, -12844.944041364675, -37751.73875710234, 11513.674141606587, 35446.75981363771, -12203.851306897559, 22634.941057555803, 0.024, 0.9560000000000001, 0.21, 192.0, 0.0, 0.0, 0.0, 0.0, 0.0, 0.0, 0.0, 0.0, 0.0, 1.657492772040553E9, 0.0, 2022-07-10 18:39:32.040
102.0, 35700.340354483174, 32512.311042822726, -12826.63796265578, -38385.85774729941, 11712.559963769909, 32356.720549669335, -12001.791537021583, 21463.06144750851, 0.024, 0.9560000000000001, 0.21, 192.0, 0.0, 0.0, 0.0, 0.0, 0.0, 0.0, 0.0, 0.0, 0.0, 1.657492772040572E9, 0.0, 2022-07-10 18:39:32.040
103.0, 34182.455740267724, 32463.18190850996, -12599.365425034217, -38126.37634591774, 11932.054094321025, 28470.44509296955, -11772.574397632408, 21265.78495094597, 0.024, 0.9560000000000001, 0.21, 192.0, 0.0, 0.0, 0.0, 0.0, 0.0, 0.0, 0.0, 0.0, 0.0, 1.657492772047264E9, 0.0, 2022-07-10 18:39:32.047
104.0, 35429.70543261831, 32588.910471071064, -12570.419915964594, -37414.07095361602, 11767.701717341151, 31027.372899934402, -11928.254297763622, 22433.574191757943, 0.024, 0.9560000000000001, 0.21, 192.0, 0.0, 0.0, 0.0, 0.0, 0.0, 0.0, 0.0, 0.0, 0.0, 1.657492772047297E9, 0.0, 2022-07-10 18:39:32.047
105.0, 37125.15230478672, 32655.02693116986, -12798.139488475263, -37604.19489195286, 11528.04631329135, 35288.80003557206, -12173.40823094943, 22765.072913774602, 0.024, 0.9560000000000001, 0.21, 192.0, 0.0, 0.0, 0.0, 0.0, 0.0, 0.0, 0.0, 0.0, 0.0, 1.657492772055131E9, 0.0, 2022-07-10 18:39:32.055
106.0, 36079.515347423, 32537.501458823856, -12841.59127969638, -38309.794760918, 11676.081916818848, 33227.52216190364, -12036.727313605228, 21645.228164819262, 0.024, 0.9560000000000001, 0.21, 192.0, 0.0, 0.0, 0.0, 0.0, 0.0, 0.0, 0.0, 0.0, 0.0, 1.657492772055168E9, 0.0, 2022-07-10 18:39:32.055
107.0, 34273.44969194528, 32452.006036282306, -12632.490710316983, -38233.97764372559, 11926.935544840759, 28764.482291279113, -11780.822191336418, 21155.792016481402, 0.024, 0.9560000000000001, 0.21, 192.0, 0.0, 0.0, 0.0, 0.0, 0.0, 0.0, 0.0, 0.0, 0.0, 1.657492772063155E9, 0.0, 2022-07-10 18:39:32.063
108.0, 35047.84823034385, 32553.594714831677, -12551.331526199761, -37501.73449536973, 11819.803633666472, 30148.83758411856, -11874.006613970592, 22203.172409912637, 0.024, 0.9560000000000001, 0.21, 192.0, 0.0, 0.0, 0.0, 0.0, 0.0, 0.0, 0.0, 0.0, 0.0, 1.657492772063224E9, 0.0, 2022-07-10 18:39:32.063
109.0, 36997.12151254672, 32648.969608422474, -12762.890787469243, -37500.72866686925, 11541.837339620273, 34896.32575468132, -12150.117713227, 22846.52267056974, 0.024, 0.9560000000000001, 0.21, 192.0, 0.0, 0.0, 0.0, 0.0, 0.0, 0.0, 0.0, 0.0, 0.0, 1.657492772070609E9, 0.0, 2022-07-10 18:39:32.070
110.0, 36436.67387207435, 32556.656903822055, -12858.176274082218, -38221.974756953095, 11617.945029490595, 34033.54841870647, -12097.009968401191, 21871.114894284594, 0.028, 0.962, 0.21, 192.0, 0.0, 224.0, 30.0, 16.0, 6.0, 144.0, 0.0, 0.0, 0.0, 1.657492772070659E9, 0.0, 2022-07-10 18:39:32.070
111.0, 34475.308296121155, 32453.458899671903, -12665.772457810934, -38321.037688379016, 11895.01725375858, 29313.84346650165, -11823.20109882368, 21121.303274786864, 0.028, 0.962, 0.21, 192.0, 0.0, 0.0, 0.0, 0.0, 0.0, 0.0, 0.0, 0.0, 0.0, 1.65749277207784E9, 0.0, 2022-07-10 18:39:32.077
112.0, 34705.19598784399, 32530.460659320437, -12533.181909702053, -37617.71769734832, 11874.453648859699, 29392.320441284235, -11830.621877982841, 21967.026229742318, 0.028, 0.962, 0.21, 192.0, 0.0, 0.0, 0.0, 0.0, 0.0, 0.0, 0.0, 0.0, 0.0, 1.657492772077861E9, 0.0, 2022-07-10 18:39:32.077
113.0, 36767.636152224084, 32651.920038690572, -12712.912286867177, -37407.90187214636, 11588.328968087313, 34276.64599140239, -12117.260648877698, 22856.580955574627, 0.028, 0.962, 0.21, 192.0, 0.0, 0.0, 0.0, 0.0, 0.0, 0.0, 0.0, 0.0, 0.0, 1.657492772085785E9, 0.0, 2022-07-10 18:39:32.085
114.0, 36742.84806762315, 32587.904642570575, -12863.607747984857, -38101.49885433899, 11583.210418607046, 34689.661525447555, -12129.598811817028, 22082.85296950972, 0.028, 0.962, 0.21, 192.0, 0.0, 0.0, 0.0, 0.0, 0.0, 0.0, 0.0, 0.0, 0.0, 1.657492772085823E9, 0.0, 2022-07-10 18:39:32.085
115.0, 34745.652645308095, 32458.353931707614, -12716.935600869132, -38388.003514767115, 11850.760799737072, 30013.386012719395, -11871.123238935857, 21120.766832919937, 0.028, 0.962, 0.21, 192.0, 0.0, 0.0, 0.0, 0.0, 0.0, 0.0, 0.0, 0.0, 0.0, 1.65749277209287E9, 0.0, 2022-07-10 18:39:32.092
116.0, 34427.363804264525, 32502.632737473577, -12534.545366113827, -37761.0147310513, 11911.959876055704, 28800.312137640973, -11798.927104345215, 21703.58856959207, 0.028, 0.962, 0.21, 192.0, 0.0, 0.0, 0.0, 0.0, 0.0, 0.0, 0.0, 0.0, 0.0, 1.657492772092889E9, 0.0, 2022-07-10 18:39:32.092
117.0, 36457.952732795806, 32640.252428084903, -12665.548940366381, -37361.186726234766, 11631.82546279734, 33477.638182358525, -12075.798162913105, 22799.31578628013, 0.028, 0.962, 0.21, 192.0, 0.0, 0.0, 0.0, 0.0, 0.0, 0.0, 0.0, 0.0, 0.0, 1.6574927720996E9, 0.0, 2022-07-10 18:39:32.099
118.0, 36972.55694539034, 32602.567386933257, -12864.25594857406, -37976.19497492254, 11540.183310530581, 35156.164783974265, -12171.418925692908, 22289.830123165862, 0.028, 0.962, 0.21, 192.0, 0.0, 0.0, 0.0, 0.0, 0.0, 0.0, 0.0, 0.0, 0.0, 1.657492772107388E9, 0.0, 2022-07-10 18:39:32.107
119.0, 35079.07361734791, 32467.831071356664, -12759.7615432455, -38417.55252093703, 11796.446060710676, 30835.371415063313, -11920.721759882184, 21184.849284273303, 0.028, 0.962, 0.21, 192.0, 0.0, 0.0, 0.0, 0.0, 0.0, 0.0, 0.0, 0.0, 0.0, 1.657492772107413E9, 0.0, 2022-07-10 18:39:32.107
120.0, 34253.556639380055, 32484.930155864975, -12545.408313919106, -37893.31470648226, 11929.863623364405, 28458.419854452593, -11782.744441359573, 21490.174113532797, 0.03, 0.9560000000000001, 0.20800000000000002, 192.0, 0.0, 240.0, 29.0, 224.0, 6.0, 128.0, 0.0, 0.0, 0.0, 1.657492772117157E9, 0.0, 2022-07-10 18:39:32.117
121.0, 36099.85543487733, 32624.069765099262, -12625.092282902275, -37341.807763792014, 11678.585312197842, 32584.171901246536, -12032.43577866981, 22681.790313934125, 0.03, 0.9560000000000001, 0.20800000000000002, 192.0, 0.0, 0.0, 0.0, 0.0, 0.0, 0.0, 0.0, 0.0, 0.0, 1.657492772117184E9, 0.0, 2022-07-10 18:39:32.117
122.0, 37110.15428425721, 32626.12612558915, -12848.609727455347, -37832.76383075283, 11525.028827789884, 35379.883394227436, -12194.79885039316, 22466.766532274072, 0.03, 0.9560000000000001, 0.20800000000000002, 192.0, 0.0, 0.0, 0.0, 0.0, 0.0, 0.0, 0.0, 0.0, 0.0, 1.657492772122946E9, 0.0, 2022-07-10 18:39:32.122
123.0, 35441.6636159019, 32490.38398151207, -12792.462145383615, -38396.98891603815, 11753.955394501138, 31702.350878995763, -11972.756620974138, 21303.917026986725, 0.03, 0.9560000000000001, 0.20800000000000002, 192.0, 0.0, 0.0, 0.0, 0.0, 0.0, 0.0, 0.0, 0.0, 0.0, 1.657492772122965E9, 0.0, 2022-07-10 18:39:32.122
124.0, 34171.078702339975, 32463.51718467679, -12575.449058467038, -38035.4270977291, 11935.786835645062, 28349.633914188616, -11789.248798996068, 21298.03851819498, 0.03, 0.9560000000000001, 0.20800000000000002, 192.0, 0.0, 0.0, 0.0, 0.0, 0.0, 0.0, 0.0, 0.0, 0.0, 1.657492772130037E9, 0.0, 2022-07-10 18:39:32.130
125.0, 35694.35008696915, 32593.02319205084, -12595.431518010082, -37379.068121799006, 11728.563812799908, 31622.59985477923, -11982.926664701303, 22502.439916424744, 0.03, 0.9560000000000001, 0.20800000000000002, 192.0, 0.0, 0.0, 0.0, 0.0, 0.0, 0.0, 0.0, 0.0, 0.0, 1.657492772130084E9, 0.0, 2022-07-10 18:39:32.130
126.0, 37149.64981670974, 32633.971587892964, -12826.883831844787, -37703.68250652344, 11518.032731775373, 35389.04760945411, -12195.625864938005, 22625.19569697329, 0.03, 0.9560000000000001, 0.20800000000000002, 192.0, 0.0, 0.0, 0.0, 0.0, 0.0, 0.0, 0.0, 0.0, 0.0, 1.657492772138725E9, 0.0, 2022-07-10 18:39:32.138
127.0, 35819.43044894105, 32510.5229032663, -12828.58256442339, -38363.21543016618, 11693.963312383094, 32598.856997353676, -12034.67095311534, 21460.87097655189, 0.03, 0.9560000000000001, 0.20800000000000002, 192.0, 0.0, 0.0, 0.0, 0.0, 0.0, 0.0, 0.0, 0.0, 0.0, 1.657492772138748E9, 0.0, 2022-07-10 18:39:32.138
128.0, 34196.76085671912, 32450.217896725884, -12611.658884484636, -38159.03224456695, 11920.297076737534, 28500.888168917678, -11800.312912501444, 21164.66565903016, 0.03, 0.9560000000000001, 0.20800000000000002, 192.0, 0.0, 0.0, 0.0, 0.0, 0.0, 0.0, 0.0, 0.0, 0.0, 1.657492772146023E9, 0.0, 2022-07-10 18:39:32.146
129.0, 35296.10905600894, 32575.00768601986, -12564.787276361856, -37441.38478534041, 11778.698775613162, 30691.26971855995, -11924.11922503939, 22299.4637250261, 0.03, 0.9560000000000001, 0.20800000000000002, 192.0, 0.0, 0.0, 0.0, 0.0, 0.0, 0.0, 0.0, 0.0, 0.0, 1.657492772146049E9, 0.0, 2022-07-10 18:39:32.146
130.0, 37088.22722294655, 32660.838384728242, -12782.068584211896, -37565.54872578964, 11529.610935403221, 35139.35627214387, -12175.755164117238, 22742.765872808206, 0.03, 0.9520000000000001, 0.21, 192.0, 0.0, 240.0, 29.0, 192.0, 6.0, 144.0, 0.0, 0.0, 0.0, 1.657492772152691E9, 0.0, 2022-07-10 18:39:32.152
131.0, 36202.06996227145, 32551.650113064068, -12845.25696578705, -38277.116510524334, 11648.499864161, 33468.42926364294, -12065.404601741386, 21665.72471448478, 0.03, 0.9520000000000001, 0.21, 192.0, 0.0, 0.0, 0.0, 0.0, 0.0, 0.0, 0.0, 0.0, 0.0, 1.657492772152725E9, 0.0, 2022-07-10 18:39:32.152
132.0, 34333.03944266313, 32461.214954997893, -12644.694762789579, -38255.99411201407, 11904.963780041193, 28884.24293807065, -11802.726900902619, 21085.384021447186, 0.03, 0.9520000000000001, 0.21, 192.0, 0.0, 0.0, 0.0, 0.0, 0.0, 0.0, 0.0, 0.0, 0.0, 1.657492772161116E9, 0.0, 2022-07-10 18:39:32.161
